timestamps,TP9,AF7,AF8,TP10,Right AUX
1711168388.329,-5.371,21.484,3.906,20.020,-20.996
1711168388.333,27.832,22.461,-0.977,15.137,-3.418
1711168388.337,13.672,22.461,1.953,9.277,14.160
1711168388.341,-24.414,30.762,5.371,4.883,27.832
1711168388.345,-19.043,29.785,5.859,8.789,31.250
1711168388.349,27.344,27.832,0.977,10.254,-51.758
1711168388.353,47.852,30.273,2.441,5.859,-15.625
1711168388.357,12.695,32.715,7.324,11.719,67.871
1711168388.361,-3.418,30.762,10.254,15.625,57.129
1711168388.365,36.133,25.879,14.160,7.812,45.898
1711168388.368,62.988,33.203,11.719,2.441,27.832
1711168388.372,19.531,38.574,9.277,6.836,82.520
1711168388.376,0.000,33.691,8.789,16.113,46.875
1711168388.380,0.000,32.715,8.301,15.137,18.555
1711168388.384,0.000,35.645,13.184,21.973,41.504
1711168388.388,0.000,39.062,16.602,37.598,30.762
1711168388.392,0.000,34.668,13.184,34.668,33.691
1711168388.396,0.000,28.320,11.719,29.297,-34.180
1711168388.400,0.000,33.691,16.602,29.785,-55.176
1711168388.404,0.000,40.039,18.066,19.531,14.160
1711168388.408,0.000,39.551,17.578,9.766,47.852
1711168388.411,0.000,38.574,19.043,17.578,24.902
1711168388.415,0.000,39.551,20.508,28.809,5.859
1711168388.419,0.000,39.062,20.996,27.344,-28.809
1711168388.423,-11.719,40.527,21.973,31.738,-0.977
1711168388.427,19.043,40.039,22.461,39.551,28.809
1711168388.431,53.223,38.086,21.973,28.320,21.973
1711168388.435,44.922,37.109,23.926,15.625,104.004
1711168388.439,4.883,36.133,25.391,25.879,77.637
1711168388.443,11.230,41.504,26.367,39.062,-4.395
1711168388.447,59.082,42.969,27.344,37.109,44.434
1711168388.450,52.734,36.621,27.832,31.250,45.410
1711168388.454,-2.441,33.691,27.832,22.461,-22.461
1711168388.458,-6.348,35.645,28.320,28.320,19.043
1711168388.462,45.410,37.109,26.855,35.156,56.152
1711168388.466,64.453,34.668,24.414,23.438,20.508
1711168388.470,62.988,37.109,21.973,11.230,39.551
1711168388.474,13.672,37.598,27.344,20.996,96.680
1711168388.478,-1.953,26.855,28.809,26.855,86.914
1711168388.482,42.969,25.879,22.949,16.602,33.691
1711168388.486,63.965,32.227,22.461,15.625,68.359
1711168388.490,26.855,29.785,20.508,25.391,85.938
1711168388.493,5.859,27.832,16.602,33.691,42.480
1711168388.497,40.039,19.531,10.742,41.504,3.418
1711168388.501,75.684,17.090,11.719,36.133,-17.578
1711168388.505,44.434,24.414,16.602,25.879,9.277
1711168388.509,-8.301,30.273,20.508,30.762,46.387
1711168388.513,18.555,36.133,21.973,32.715,28.320
1711168388.517,78.125,36.133,19.043,32.715,42.969
1711168388.521,62.012,33.691,17.578,33.203,60.059
1711168388.525,4.395,31.250,20.020,26.855,19.043
1711168388.529,9.277,31.250,19.531,24.902,39.062
1711168388.532,59.082,28.320,17.578,25.879,42.969
1711168388.536,66.406,23.926,17.090,31.738,35.156
1711168388.540,25.391,27.832,16.113,39.062,63.477
1711168388.544,18.066,27.344,17.090,39.551,17.090
1711168388.548,57.617,28.320,18.555,38.086,-7.324
1711168388.552,73.242,27.832,17.578,37.598,43.945
1711168388.556,28.809,22.461,15.137,41.504,47.363
1711168388.560,3.418,21.973,11.719,41.992,3.418
1711168388.564,41.992,24.414,0.000,32.715,18.066
1711168388.568,70.312,22.461,0.000,17.578,46.387
1711168388.572,33.203,18.555,0.000,16.602,7.324
1711168388.575,-6.836,22.949,0.000,29.297,-24.414
1711168388.579,12.695,23.926,0.000,29.785,-19.531
1711168388.583,51.270,16.602,0.000,19.043,-15.625
1711168388.587,42.969,19.531,0.000,17.090,20.508
1711168388.591,4.395,24.414,0.000,26.367,38.086
1711168388.595,4.883,19.531,0.000,33.691,13.184
1711168388.599,41.504,18.066,0.000,20.996,64.941
1711168388.603,57.129,21.484,0.000,19.531,84.961
1711168388.607,25.391,24.902,0.000,22.949,29.297
1711168388.611,0.000,26.855,7.324,14.648,51.758
1711168388.614,0.000,22.461,10.742,11.230,40.039
1711168388.618,0.000,24.414,12.695,16.113,46.387
1711168388.622,0.000,27.344,9.277,24.414,62.012
1711168388.626,0.000,22.949,10.742,20.508,19.043
1711168388.630,0.000,20.996,9.277,13.672,1.953
1711168388.634,0.000,23.926,8.301,16.602,-1.953
1711168388.638,0.000,20.996,11.719,37.109,25.391
1711168388.642,0.000,23.438,12.207,32.715,56.152
1711168388.646,0.000,31.250,9.766,11.719,27.344
1711168388.650,0.000,28.809,8.301,11.230,12.695
1711168388.654,0.000,25.879,5.859,-0.488,3.418
1711168388.657,-0.488,24.414,1.465,1.465,-0.488
1711168388.661,-3.906,20.020,1.465,8.789,62.012
1711168388.665,16.602,14.648,4.883,6.836,69.336
1711168388.669,29.297,16.602,9.766,9.277,35.156
1711168388.673,8.301,19.531,9.277,12.695,10.254
1711168388.677,0.000,19.043,7.324,16.113,55.664
1711168388.681,31.250,19.043,6.836,18.066,95.215
1711168388.685,58.105,21.484,6.348,20.996,53.711
1711168388.689,33.203,25.391,7.324,12.695,39.551
1711168388.693,-5.371,25.391,6.348,16.602,50.293
1711168388.696,15.625,25.879,3.906,26.855,4.883
1711168388.700,55.176,27.344,6.836,19.531,0.977
1711168388.704,35.645,25.391,6.348,20.508,18.555
1711168388.708,-5.859,20.996,1.465,16.602,2.930
1711168388.712,7.812,19.531,0.977,11.230,-19.531
1711168388.716,53.223,16.113,0.977,18.066,0.488
1711168388.720,55.664,13.672,2.930,11.719,21.973
1711168388.724,10.742,21.973,9.766,11.230,6.836
1711168388.728,6.348,24.902,9.277,20.508,33.691
1711168388.732,41.504,24.414,5.371,6.836,88.379
1711168388.736,51.758,31.738,4.883,-2.441,93.262
1711168388.739,9.766,35.156,2.441,9.766,22.949
1711168388.743,-12.695,28.320,1.953,16.113,26.367
1711168388.747,16.113,22.461,3.418,10.254,9.277
1711168388.751,47.852,22.461,1.465,12.695,-12.207
1711168388.755,24.414,24.902,3.906,16.602,42.969
1711168388.759,-10.742,27.344,10.742,18.066,44.434
1711168388.763,9.277,26.367,9.277,22.461,41.992
1711168388.767,53.711,18.555,8.301,9.277,4.395
1711168388.771,48.340,17.578,11.230,7.324,-20.996
1711168388.775,-6.836,24.414,11.230,28.809,52.246
1711168388.779,-5.371,22.461,8.789,19.043,71.289
1711168388.782,39.062,19.531,5.371,-3.906,37.109
1711168388.786,40.527,24.414,6.348,-5.859,28.809
1711168388.790,-7.324,20.020,6.836,5.859,41.504
1711168388.794,-21.973,19.043,3.418,7.324,61.523
1711168388.798,25.879,22.949,2.441,5.859,44.922
1711168388.802,52.246,20.508,3.418,14.648,27.344
1711168388.806,12.207,15.625,4.883,18.555,22.949
1711168388.810,-12.695,17.090,9.766,20.996,55.176
1711168388.814,20.996,19.043,11.719,16.602,46.875
1711168388.818,53.223,22.461,11.719,6.348,-23.438
1711168388.821,26.367,22.949,16.602,6.836,-9.277
1711168388.825,-18.555,16.602,14.160,12.207,21.484
1711168388.829,7.812,17.090,8.301,12.207,8.301
1711168388.833,50.293,11.230,11.230,9.766,26.367
1711168388.837,28.809,9.277,12.695,8.789,28.809
1711168388.841,-17.090,16.113,5.859,8.789,53.711
1711168388.845,-7.812,16.113,4.883,20.996,111.816
1711168388.849,42.969,16.602,6.836,21.973,88.867
1711168388.853,54.199,21.484,7.324,9.277,33.203
1711168388.857,0.488,25.391,9.766,17.090,39.062
1711168388.861,-21.484,21.973,14.160,24.414,79.102
1711168388.864,24.902,21.973,16.602,8.789,14.648
1711168388.868,46.875,27.344,14.160,-5.859,28.809
1711168388.872,23.926,30.762,14.160,7.812,43.945
1711168388.876,11.230,30.762,13.672,33.203,-0.977
1711168388.880,38.086,27.832,14.648,36.133,37.598
1711168388.884,75.684,28.809,14.648,28.320,-1.465
1711168388.888,59.570,29.785,8.789,27.344,-19.531
1711168388.892,0.000,28.320,0.000,37.109,58.594
1711168388.896,0.000,25.391,0.000,31.250,72.754
1711168388.900,0.000,23.926,0.000,7.812,37.109
1711168388.904,0.000,26.855,0.000,2.930,28.320
1711168388.907,0.000,27.832,0.000,9.277,87.402
1711168388.911,0.000,26.367,0.000,15.625,82.520
1711168388.915,0.000,26.855,0.000,11.230,53.711
1711168388.919,0.000,26.367,0.000,6.836,95.215
1711168388.923,0.000,25.879,0.000,19.531,74.219
1711168388.927,0.000,25.879,0.000,19.043,16.113
1711168388.931,0.000,25.391,0.000,9.277,19.531
1711168388.935,0.000,22.949,0.000,23.438,49.805
1711168388.939,20.020,20.996,5.371,10.742,-5.371
1711168388.943,-14.160,23.926,7.324,-4.395,-37.109
1711168388.946,9.277,29.297,4.883,1.465,26.367
1711168388.950,37.598,26.855,4.395,-17.578,70.312
1711168388.954,11.719,22.949,5.371,-18.555,8.789
1711168388.958,-41.992,21.973,6.348,0.488,-20.020
1711168388.962,-33.203,18.555,8.301,-12.207,-8.301
1711168388.966,10.742,20.020,6.348,-17.578,42.969
1711168388.970,-3.418,22.949,5.859,-16.113,54.199
1711168388.974,-35.645,29.297,8.789,-24.902,-16.113
1711168388.978,-49.316,25.391,7.812,-32.227,8.789
1711168388.982,-30.762,21.484,3.418,-46.875,18.066
1711168388.986,-25.391,20.020,3.418,-68.848,-34.180
1711168388.989,-85.449,12.695,5.371,-86.426,-7.812
1711168388.993,-129.883,12.207,-2.930,-99.609,66.406
1711168388.997,-116.699,4.395,-11.719,-127.930,77.637
1711168389.001,-117.188,-3.418,-11.230,-168.945,21.973
1711168389.005,-172.852,-1.953,-14.160,-200.195,57.129
1711168389.009,-228.027,-5.371,-24.414,-212.402,91.309
1711168389.013,-219.238,-10.254,-37.109,-207.520,5.859
1711168389.017,-175.781,-5.859,-42.969,-210.449,38.086
1711168389.021,-173.340,-3.906,-47.363,-216.797,70.801
1711168389.025,-197.754,-4.395,-47.363,-204.102,70.312
1711168389.028,-195.801,-1.465,-42.969,-196.289,47.852
1711168389.032,0.000,-3.418,-41.504,-193.359,-9.766
1711168389.036,0.000,-9.766,-43.457,-183.105,44.434
1711168389.040,0.000,-13.184,-44.922,-169.434,14.648
1711168389.044,0.000,-3.906,-40.039,-162.109,-38.086
1711168389.048,0.000,15.625,-37.598,-147.949,29.785
1711168389.052,0.000,21.973,-40.039,-136.230,28.809
1711168389.056,0.000,13.672,-38.574,-117.188,27.344
1711168389.060,0.000,15.137,-36.621,-93.262,27.832
1711168389.064,0.000,23.438,-35.156,-93.262,45.410
1711168389.068,0.000,27.832,-35.156,-94.727,117.676
1711168389.071,0.000,25.879,-34.180,-78.613,37.598
1711168389.075,0.000,25.391,-28.320,-49.805,-11.230
1711168389.079,-38.086,25.391,-24.414,-42.480,35.156
1711168389.083,15.625,20.508,-20.508,-41.504,14.648
1711168389.087,16.602,23.438,-19.531,-28.809,1.465
1711168389.091,-30.762,29.785,-18.066,-8.789,30.762
1711168389.095,-30.273,29.785,-17.090,-0.488,77.637
1711168389.099,31.738,25.879,-22.949,-4.883,41.504
1711168389.103,58.594,17.578,-25.879,10.254,36.621
1711168389.107,20.996,15.137,-24.902,16.602,23.438
1711168389.110,0.488,22.461,-27.832,18.066,43.945
1711168389.114,36.621,24.414,-28.320,25.879,31.738
1711168389.118,68.848,20.996,-27.344,25.879,11.719
1711168389.122,43.945,19.043,-23.926,40.527,-24.414
1711168389.126,7.812,18.066,-19.043,47.852,-15.625
1711168389.130,41.504,20.508,-17.578,43.945,20.508
1711168389.134,92.285,23.926,-14.160,46.387,39.062
1711168389.138,76.660,30.762,-2.441,54.688,62.988
1711168389.142,41.504,25.879,-0.488,61.035,50.781
1711168389.146,63.965,16.602,-2.930,66.406,41.504
1711168389.150,110.840,23.926,-4.395,60.059,32.227
1711168389.153,103.027,26.855,-11.719,41.504,18.555
1711168389.157,44.922,20.996,-7.812,39.551,25.391
1711168389.161,35.645,20.020,-4.395,46.875,11.230
1711168389.165,88.379,19.043,-4.395,54.688,-13.184
1711168389.169,101.074,19.531,0.488,56.152,-67.383
1711168389.173,50.293,24.414,1.465,58.594,-3.418
1711168389.177,30.762,24.902,2.441,71.777,78.125
1711168389.181,75.195,15.625,1.953,71.289,18.066
1711168389.185,92.285,16.602,0.488,63.965,-5.371
1711168389.189,46.875,21.973,4.395,69.824,20.020
1711168389.193,24.902,20.020,6.836,71.777,58.594
1711168389.196,64.453,20.020,5.371,66.895,65.430
1711168389.200,108.887,18.066,6.836,55.664,2.441
1711168389.204,99.121,12.695,8.789,56.641,5.859
1711168389.208,48.340,14.648,7.324,62.012,44.922
1711168389.212,42.480,20.996,8.301,62.500,46.875
1711168389.216,95.215,25.391,10.254,58.105,24.414
1711168389.220,0.000,20.508,0.000,57.617,-1.953
1711168389.224,0.000,19.531,0.000,70.312,4.883
1711168389.228,0.000,24.902,0.000,77.148,2.441
1711168389.232,0.000,22.949,0.000,65.430,-7.324
1711168389.236,0.000,22.949,0.000,60.059,41.992
1711168389.239,0.000,22.949,0.000,68.359,41.016
1711168389.243,0.000,18.555,0.000,78.125,36.621
1711168389.247,0.000,18.555,0.000,79.590,32.227
1711168389.251,0.000,34.180,0.000,76.172,12.207
1711168389.255,0.000,39.062,0.000,82.520,8.789
1711168389.259,0.000,34.668,0.000,90.332,61.523
1711168389.263,0.000,34.668,0.000,81.055,51.758
1711168389.267,101.562,32.227,32.715,75.195,19.043
1711168389.271,95.703,34.180,28.809,77.637,54.199
1711168389.275,47.852,35.156,27.832,70.312,78.613
1711168389.279,59.082,31.738,30.273,76.660,57.129
1711168389.282,111.816,31.250,31.738,80.078,-0.977
1711168389.286,107.910,36.133,29.297,67.871,-5.859
1711168389.290,61.523,36.621,25.879,75.195,17.090
1711168389.294,48.828,36.621,34.668,86.914,11.230
1711168389.298,82.520,37.109,38.574,78.125,36.133
1711168389.302,109.863,33.691,37.598,64.941,39.062
1711168389.306,79.102,35.645,40.527,57.129,54.199
1711168389.310,45.410,40.527,38.086,70.312,83.496
1711168389.314,69.824,34.180,0.000,80.566,87.402
1711168389.318,105.957,28.809,0.000,76.172,42.480
1711168389.321,76.172,31.250,0.000,72.266,-11.230
1711168389.325,41.016,29.297,0.000,70.312,25.391
1711168389.329,51.758,29.785,0.000,64.941,109.375
1711168389.333,86.914,35.645,0.000,60.059,108.398
1711168389.337,86.426,32.227,0.000,55.664,28.809
1711168389.341,27.344,34.668,0.000,65.918,28.320
1711168389.345,27.344,37.109,0.000,74.707,40.527
1711168389.349,81.543,26.855,0.000,68.848,38.086
1711168389.353,98.633,24.414,0.000,61.035,52.734
1711168389.357,44.434,32.715,0.000,56.641,32.715
1711168389.360,0.000,34.180,38.086,54.688,37.109
1711168389.364,0.000,28.809,33.691,44.922,28.320
1711168389.368,0.000,25.879,29.785,39.551,17.090
1711168389.372,0.000,22.461,37.598,47.852,15.137
1711168389.376,0.000,17.578,44.434,56.152,9.277
1711168389.380,0.000,16.602,42.969,54.688,65.430
1711168389.384,0.000,19.531,36.133,47.852,25.391
1711168389.388,0.000,24.902,37.598,48.340,17.090
1711168389.392,0.000,20.020,39.551,46.387,34.180
1711168389.396,0.000,12.207,34.180,44.434,-1.953
1711168389.400,0.000,16.113,32.715,52.734,2.930
1711168389.403,0.000,20.020,33.691,45.898,16.113
1711168389.407,48.828,19.531,32.227,51.270,62.988
1711168389.411,41.992,21.973,34.180,46.387,32.227
1711168389.415,62.988,21.973,31.250,30.273,3.418
1711168389.419,68.359,15.625,28.320,29.785,46.387
1711168389.423,29.785,19.531,28.320,22.461,45.898
1711168389.427,4.395,29.297,24.414,27.344,18.555
1711168389.431,40.527,29.297,23.438,32.715,0.977
1711168389.435,67.383,26.855,25.879,32.227,41.016
1711168389.439,34.668,22.949,26.367,35.156,84.961
1711168389.442,1.465,7.812,24.414,41.016,-39.062
1711168389.446,22.461,1.465,20.996,38.574,-55.176
1711168389.450,59.570,9.766,14.648,31.738,-1.953
1711168389.454,0.000,15.137,13.184,27.832,27.344
1711168389.458,0.000,16.602,18.555,31.738,52.734
1711168389.462,0.000,19.043,21.973,39.551,17.578
1711168389.466,0.000,21.484,18.555,30.762,22.461
1711168389.470,0.000,21.484,9.277,14.648,85.449
1711168389.474,0.000,22.949,7.812,20.508,116.211
1711168389.478,0.000,17.578,12.207,34.180,50.781
1711168389.482,0.000,15.137,11.230,33.691,33.203
1711168389.485,0.000,21.973,9.766,30.762,58.594
1711168389.489,0.000,23.926,9.766,33.203,27.344
1711168389.493,0.000,16.602,11.719,29.297,-0.488
1711168389.497,0.000,13.672,14.160,27.344,46.387
1711168389.501,55.176,19.531,12.695,0.000,49.805
1711168389.505,7.324,20.020,8.301,0.000,25.391
1711168389.509,13.672,17.090,8.789,0.000,3.418
1711168389.513,74.707,16.602,12.207,0.000,24.414
1711168389.517,62.500,12.695,16.113,0.000,80.566
1711168389.521,7.324,11.230,16.113,0.000,52.246
1711168389.524,0.000,17.578,12.695,0.000,22.949
1711168389.528,32.715,24.902,14.160,0.000,92.285
1711168389.532,52.734,27.344,13.184,0.000,97.656
1711168389.536,20.996,23.438,12.207,0.000,67.383
1711168389.540,-10.742,19.043,11.719,0.000,24.414
1711168389.544,20.996,22.949,11.230,0.000,25.879
1711168389.548,53.711,23.926,10.254,17.578,47.363
1711168389.552,23.438,18.066,9.766,13.672,45.898
1711168389.556,-20.996,19.531,9.766,16.113,4.395
1711168389.560,4.883,20.020,8.789,21.484,-42.969
1711168389.563,56.641,16.113,6.836,20.020,-9.277
1711168389.567,42.969,15.137,5.859,14.160,62.012
1711168389.571,-14.160,19.531,10.254,10.254,72.266
1711168389.575,-8.789,20.508,13.672,19.531,25.391
1711168389.579,45.410,18.555,11.230,16.113,-19.043
1711168389.583,61.035,22.461,6.836,9.766,21.973
1711168389.587,17.578,27.344,5.371,19.531,89.355
1711168389.591,-5.859,31.250,7.812,25.879,31.250
1711168389.595,-9.766,23.926,11.719,21.973,0.000
1711168389.599,26.855,16.113,14.160,20.508,43.945
1711168389.603,41.504,18.066,14.648,10.254,60.547
1711168389.606,-3.906,15.137,16.113,8.789,21.484
1711168389.610,-31.738,7.324,22.461,16.602,8.789
1711168389.614,12.695,4.883,26.855,17.090,9.277
1711168389.618,50.781,3.418,26.367,12.695,-4.395
1711168389.622,3.418,-2.930,25.879,8.789,31.250
1711168389.626,-36.133,-3.418,23.438,22.461,41.016
1711168389.630,5.859,3.906,24.902,26.855,17.578
1711168389.634,47.363,6.836,20.508,7.812,23.926
1711168389.638,44.922,10.742,17.090,7.324,33.691
1711168389.642,18.066,13.184,20.020,26.367,66.406
1711168389.646,14.160,8.301,18.555,24.902,83.008
1711168389.649,49.316,9.277,18.555,12.207,25.391
1711168389.653,53.711,12.207,20.508,20.020,46.387
1711168389.657,7.812,11.719,18.066,37.598,67.871
1711168389.661,-11.719,16.113,14.648,35.156,62.500
1711168389.665,46.387,20.020,15.137,11.719,20.996
1711168389.669,80.566,20.020,17.090,8.789,-15.137
1711168389.673,21.973,19.531,14.160,29.297,10.254
1711168389.677,-9.277,16.602,14.160,37.598,-35.156
1711168389.681,26.367,16.113,20.020,25.391,13.184
1711168389.685,52.246,19.043,20.996,13.672,27.832
1711168389.689,0.000,17.090,15.625,21.973,3.418
1711168389.692,0.000,16.602,16.113,32.227,94.238
1711168389.696,0.000,13.672,13.672,25.391,94.727
1711168389.700,0.000,14.648,10.254,9.766,42.480
1711168389.704,0.000,19.043,14.648,7.812,22.949
1711168389.708,0.000,16.113,15.137,16.113,6.836
1711168389.712,0.000,12.207,11.230,18.066,-1.465
1711168389.716,0.000,8.789,12.695,20.020,45.410
1711168389.720,0.000,6.348,16.113,22.949,154.297
1711168389.724,0.000,9.766,17.578,35.645,97.656
1711168389.728,0.000,12.695,15.625,45.410,-5.371
1711168389.731,0.000,8.301,9.277,25.391,35.156
1711168389.735,43.945,9.277,0.000,4.883,44.434
1711168389.739,9.766,18.066,0.000,10.742,23.926
1711168389.743,-17.578,20.020,0.000,22.949,20.996
1711168389.747,13.672,13.672,0.000,16.113,7.812
1711168389.751,47.852,14.160,0.000,1.465,23.438
1711168389.755,28.809,22.949,0.000,1.953,9.277
1711168389.759,-12.207,19.531,0.000,17.578,0.977
1711168389.763,-0.488,17.090,0.000,20.020,-14.160
1711168389.767,45.898,16.602,0.000,12.207,19.043
1711168389.771,37.109,12.207,0.000,10.742,46.875
1711168389.774,-15.625,12.207,0.000,12.695,7.324
1711168389.778,-13.184,10.742,0.000,18.555,46.387
1711168389.782,34.180,17.578,-2.441,32.227,67.871
1711168389.786,38.574,20.996,-4.395,22.461,32.715
1711168389.790,-2.930,17.090,-2.441,6.836,27.344
1711168389.794,-22.461,24.902,-0.488,3.418,16.113
1711168389.798,23.926,28.320,1.953,0.977,-18.555
1711168389.802,53.223,27.344,6.836,0.977,19.531
1711168389.806,10.742,31.250,8.789,10.254,15.137
1711168389.810,-34.180,29.297,7.812,20.508,16.602
1711168389.813,-8.301,26.367,5.371,10.742,25.879
1711168389.817,40.527,25.391,1.465,6.836,3.906
1711168389.821,11.230,22.949,-2.441,20.508,82.031
1711168389.825,-33.691,27.832,0.000,30.762,47.363
1711168389.829,-10.254,26.855,0.977,23.438,9.766
1711168389.833,39.551,19.531,5.371,16.602,32.715
1711168389.837,28.809,17.090,5.371,14.160,53.223
1711168389.841,-23.438,22.949,-2.930,9.277,22.461
1711168389.845,-16.602,29.297,-3.418,10.254,28.809
1711168389.849,30.273,24.414,-0.488,-2.930,40.039
1711168389.853,48.828,20.020,1.953,0.488,1.953
1711168389.856,14.648,26.367,4.883,17.578,37.598
1711168389.860,-11.230,33.203,8.301,21.484,42.969
1711168389.864,25.391,32.227,9.277,22.461,22.949
1711168389.868,54.199,26.855,6.836,17.090,27.344
1711168389.872,13.184,28.809,9.277,17.578,-8.301
1711168389.876,0.000,27.832,10.742,18.555,-17.578
1711168389.880,0.000,19.043,5.859,16.602,21.973
1711168389.884,0.000,17.090,3.906,15.625,64.453
1711168389.888,0.000,22.949,3.906,10.254,79.590
1711168389.892,0.000,24.902,5.859,8.789,12.695
1711168389.896,0.000,18.066,5.371,20.996,-28.320
1711168389.899,0.000,17.578,4.395,14.160,21.973
1711168389.903,0.000,26.855,3.418,-11.230,91.797
1711168389.907,0.000,31.738,4.883,-0.977,87.402
1711168389.911,0.000,33.691,6.836,10.254,69.824
1711168389.915,0.000,32.715,4.883,-1.953,19.531
1711168389.919,0.000,27.832,2.930,-4.883,-13.672
1711168389.923,10.254,24.414,5.371,-3.906,39.551
1711168389.927,-1.953,22.461,9.766,5.859,44.922
1711168389.931,33.203,23.438,6.836,11.230,25.391
1711168389.935,58.594,22.461,2.930,11.230,28.809
1711168389.939,43.945,21.484,8.301,24.902,1.953
1711168389.942,7.324,26.367,12.695,22.461,5.859
1711168389.946,7.812,26.367,9.277,3.906,57.129
1711168389.950,51.270,26.367,4.883,-5.371,-7.812
1711168389.954,47.852,26.367,3.906,-6.348,-25.391
1711168389.958,0.977,21.973,7.812,12.695,57.617
1711168389.962,7.812,23.438,9.277,14.648,50.293
1711168389.966,59.570,25.879,10.254,2.441,42.969
1711168389.970,0.000,26.855,0.000,9.766,42.969
1711168389.974,0.000,29.297,0.000,21.973,27.344
1711168389.978,0.000,24.414,0.000,37.109,68.359
1711168389.982,0.000,16.602,0.000,28.320,71.777
1711168389.985,0.000,19.531,0.000,22.949,22.461
1711168389.989,0.000,22.949,0.000,28.809,1.465
1711168389.993,0.000,20.508,0.000,22.949,55.176
1711168389.997,0.000,20.508,0.000,24.414,52.246
1711168390.001,0.000,29.297,0.000,23.438,-1.953
1711168390.005,0.000,27.832,0.000,11.719,-15.137
1711168390.009,0.000,25.879,0.000,14.648,-10.254
1711168390.013,0.000,27.344,0.000,19.531,27.832
1711168390.017,60.059,23.438,9.766,21.973,25.879
1711168390.021,61.523,25.879,12.695,29.785,14.160
1711168390.024,15.625,27.344,12.695,32.227,48.340
1711168390.028,31.250,22.461,16.602,31.738,58.105
1711168390.032,72.754,20.996,15.625,28.320,92.285
1711168390.036,70.801,20.996,9.277,20.508,79.102
1711168390.040,36.133,20.996,13.184,16.602,28.320
1711168390.044,17.578,17.578,16.602,28.809,35.645
1711168390.048,41.504,20.020,16.113,40.527,73.242
1711168390.052,65.430,20.996,20.996,44.922,78.125
1711168390.056,39.062,15.137,20.020,31.738,53.711
1711168390.060,9.277,10.254,20.020,27.344,53.711
1711168390.064,0.000,12.695,23.926,0.000,64.941
1711168390.067,0.000,18.066,26.855,0.000,21.973
1711168390.071,0.000,24.414,29.297,0.000,6.836
1711168390.075,0.000,19.531,28.320,0.000,17.090
1711168390.079,0.000,17.578,26.855,0.000,4.883
1711168390.083,0.000,23.926,28.809,0.000,17.578
1711168390.087,0.000,28.320,27.832,0.000,17.578
1711168390.091,0.000,30.273,28.809,0.000,63.965
1711168390.095,0.000,25.879,35.645,0.000,82.520
1711168390.099,0.000,27.832,35.156,0.000,12.207
1711168390.103,0.000,27.832,35.645,0.000,14.648
1711168390.106,0.000,26.855,35.156,0.000,92.285
1711168390.110,36.133,31.250,33.691,59.570,77.148
1711168390.114,78.125,30.762,35.645,32.227,19.531
1711168390.118,61.035,34.668,39.551,24.414,23.438
1711168390.122,6.836,41.016,40.527,35.645,80.078
1711168390.126,18.555,43.457,34.668,33.203,42.480
1711168390.130,66.406,45.410,35.156,36.621,10.254
1711168390.134,54.688,48.828,32.227,39.551,-31.738
1711168390.138,14.160,48.340,27.344,43.945,-39.062
1711168390.142,18.555,46.387,26.855,52.734,8.789
1711168390.146,60.059,43.457,23.926,40.039,-13.184
1711168390.149,75.684,40.039,28.809,26.855,5.371
1711168390.153,51.270,45.410,33.203,29.297,60.547
1711168390.157,38.574,48.340,0.000,31.250,20.996
1711168390.161,53.711,48.340,0.000,34.180,8.789
1711168390.165,73.730,47.363,0.000,36.621,31.738
1711168390.169,42.969,47.363,0.000,35.156,34.180
1711168390.173,3.418,47.363,0.000,37.109,41.016
1711168390.177,25.879,44.922,0.000,38.574,-19.531
1711168390.181,78.125,41.016,0.000,39.062,15.137
1711168390.185,72.266,31.250,0.000,35.645,82.520
1711168390.188,28.809,31.738,0.000,34.668,19.531
1711168390.192,34.180,36.133,0.000,37.598,14.160
1711168390.196,65.918,34.668,0.000,37.598,44.922
1711168390.200,65.918,30.762,0.000,26.855,52.246
1711168390.204,37.109,24.902,27.832,18.555,71.289
1711168390.208,29.785,26.855,26.367,32.227,-3.906
1711168390.212,63.477,29.785,26.855,29.297,-14.648
1711168390.216,82.520,30.273,32.715,22.949,32.715
1711168390.220,39.062,33.691,31.738,28.809,0.000
1711168390.224,6.348,32.715,29.785,29.785,19.043
1711168390.227,50.293,28.809,27.344,42.969,-13.672
1711168390.231,81.543,27.832,21.973,39.551,9.766
1711168390.235,41.992,29.785,22.949,18.066,70.801
1711168390.239,3.418,36.133,24.902,24.902,58.105
1711168390.243,18.066,37.598,26.367,32.715,41.016
1711168390.247,58.594,30.762,28.320,22.949,18.066
1711168390.251,52.246,30.273,31.738,17.090,6.348
1711168390.255,14.648,30.762,32.715,18.066,47.363
1711168390.259,11.230,30.273,32.227,26.855,44.922
1711168390.263,49.805,31.250,29.785,32.715,74.219
1711168390.266,71.777,28.809,27.832,15.625,77.148
1711168390.270,20.996,27.832,26.855,9.277,53.711
1711168390.274,2.930,21.484,20.020,26.367,52.246
1711168390.278,57.129,16.113,19.531,24.902,72.754
1711168390.282,69.824,17.578,20.508,10.742,70.801
1711168390.286,27.344,20.508,20.996,17.090,32.227
1711168390.290,3.418,23.926,20.508,27.344,28.809
1711168390.294,28.320,20.996,16.602,21.973,39.551
1711168390.298,20.508,17.578,13.672,16.113,46.875
1711168390.302,51.270,18.555,15.625,14.648,62.988
1711168390.306,21.973,18.555,18.555,21.973,18.066
1711168390.309,-10.742,24.414,20.020,20.996,2.930
1711168390.313,20.508,31.250,19.531,18.066,18.066
1711168390.317,57.617,30.273,18.066,19.531,-19.531
1711168390.321,32.227,18.555,21.484,16.602,-39.062
1711168390.325,-4.395,11.230,23.926,20.996,-20.996
1711168390.329,9.277,13.672,22.949,22.949,34.668
1711168390.333,44.922,16.113,25.879,21.484,62.500
1711168390.337,36.621,12.207,25.879,19.531,101.074
1711168390.341,2.930,15.625,23.438,25.391,67.383
1711168390.345,0.977,23.438,19.531,23.438,-35.645
1711168390.349,35.645,25.879,20.508,11.719,-3.906
1711168390.352,41.504,26.367,20.996,9.766,24.902
1711168390.356,-2.441,27.832,14.648,9.277,-0.488
1711168390.360,-19.531,24.414,16.602,24.414,-6.348
1711168390.364,16.113,18.555,15.625,30.273,23.926
1711168390.368,51.758,19.531,15.625,17.090,59.570
1711168390.372,32.227,17.578,19.531,8.789,36.621
1711168390.376,-13.672,18.066,16.113,22.461,56.641
1711168390.380,6.836,24.902,11.719,28.320,75.684
1711168390.384,53.711,25.879,14.160,12.207,23.438
1711168390.388,26.367,22.461,14.160,15.625,4.395
1711168390.391,-20.020,17.578,11.719,22.949,24.414
1711168390.395,-4.883,14.160,15.137,27.832,62.500
1711168390.399,51.758,20.508,17.578,17.578,70.801
1711168390.403,53.223,27.832,17.578,-0.488,18.555
1711168390.407,9.766,21.484,17.578,1.465,48.340
1711168390.411,3.418,17.090,16.602,11.230,73.730
1711168390.415,22.949,16.602,14.160,12.207,9.766
1711168390.419,39.062,15.137,16.602,13.184,-12.695
1711168390.423,1.953,10.742,20.508,14.648,38.086
1711168390.427,-20.996,13.184,18.066,13.672,10.254
1711168390.431,23.438,19.043,17.578,12.695,0.488
1711168390.434,56.152,20.020,20.020,15.625,40.527
1711168390.438,26.367,17.090,21.484,15.625,72.754
1711168390.442,-11.719,11.230,20.996,16.113,84.473
1711168390.446,10.742,10.254,19.531,15.137,37.598
1711168390.450,50.781,12.207,19.531,7.324,5.859
1711168390.454,28.809,12.695,17.578,3.906,46.387
1711168390.458,-14.160,10.742,16.602,9.277,45.898
1711168390.462,7.324,14.648,17.578,20.508,22.461
1711168390.466,55.664,20.996,15.137,16.602,26.367
1711168390.470,54.199,25.391,16.602,23.438,67.871
1711168390.473,2.930,15.625,18.555,31.250,39.551
1711168390.477,-17.090,4.395,18.066,13.184,-48.828
1711168390.481,42.969,11.719,17.578,0.488,-38.574
1711168390.485,78.125,20.020,0.000,9.277,36.621
1711168390.489,20.508,18.066,0.000,9.277,46.875
1711168390.493,-29.297,12.695,0.000,2.441,-38.086
1711168390.497,-0.977,7.812,0.000,5.371,-19.531
1711168390.501,33.691,9.766,0.000,-2.930,48.340
1711168390.505,7.812,13.672,0.000,0.000,35.645
1711168390.509,-30.762,10.742,0.000,12.207,27.344
1711168390.513,-8.789,9.766,0.000,17.578,47.852
1711168390.516,45.898,12.207,0.000,10.254,30.762
1711168390.520,45.410,11.719,0.000,6.836,44.922
1711168390.524,10.254,10.254,0.000,15.137,57.129
1711168390.528,5.371,10.254,0.000,7.812,-19.531
1711168390.532,0.000,8.301,16.602,0.000,-14.648
1711168390.536,0.000,6.836,14.648,0.000,1.465
1711168390.540,0.000,1.465,12.207,0.000,21.484
1711168390.544,0.000,2.441,14.648,0.000,62.500
1711168390.548,0.000,10.742,17.578,0.000,21.973
1711168390.552,0.000,11.719,16.602,0.000,1.953
1711168390.555,0.000,13.184,18.066,0.000,36.133
1711168390.559,0.000,8.789,20.020,0.000,46.387
1711168390.563,0.000,5.371,19.531,0.000,27.832
1711168390.567,0.000,10.742,20.996,0.000,-1.465
1711168390.571,0.000,13.184,20.020,0.000,11.719
1711168390.575,0.000,10.742,18.066,0.000,5.371
1711168390.579,17.090,12.695,21.973,15.137,43.457
1711168390.583,58.594,16.602,19.531,12.207,71.289
1711168390.587,32.715,19.043,17.578,11.230,49.316
1711168390.591,-12.207,17.578,15.625,17.578,8.789
1711168390.595,-10.742,17.578,18.555,19.531,-0.488
1711168390.598,32.715,12.695,20.020,13.184,34.668
1711168390.602,39.062,7.812,16.602,13.672,37.109
1711168390.606,0.977,16.113,18.555,20.508,53.711
1711168390.610,-2.441,23.438,24.902,22.949,9.277
1711168390.614,23.926,23.926,24.414,15.137,34.668
1711168390.618,45.898,19.531,19.043,2.441,68.359
1711168390.622,25.879,16.602,19.531,1.465,10.742
1711168390.626,-22.461,17.578,18.066,12.695,25.391
1711168390.630,-11.719,15.625,17.578,10.254,-4.395
1711168390.634,46.875,13.672,16.113,-2.441,-37.109
1711168390.638,41.016,15.625,15.137,-0.977,36.133
1711168390.641,-7.812,17.578,16.602,3.418,80.566
1711168390.645,3.906,17.578,21.484,17.578,43.945
1711168390.649,42.969,17.578,20.508,36.133,62.012
1711168390.653,38.086,17.578,15.625,37.598,42.480
1711168390.657,-4.883,16.602,17.578,21.484,47.852
1711168390.661,-20.508,12.207,21.973,13.184,82.031
1711168390.665,13.672,11.230,19.043,7.324,78.125
1711168390.669,41.504,15.625,16.602,1.953,62.988
1711168390.673,0.000,22.461,19.043,20.020,14.160
1711168390.677,0.000,20.508,18.555,27.344,-4.395
1711168390.680,0.000,7.324,19.043,16.602,-17.578
1711168390.684,0.000,2.930,22.461,14.160,-9.277
1711168390.688,0.000,11.230,20.508,21.484,46.387
1711168390.692,0.000,14.160,16.113,34.180,53.223
1711168390.696,0.000,5.859,14.160,25.391,35.156
1711168390.700,0.000,4.883,12.695,8.789,-16.602
1711168390.704,0.000,12.695,12.695,8.301,-17.578
1711168390.708,0.000,17.578,15.137,29.297,55.664
1711168390.712,0.000,14.648,15.625,24.414,5.859
1711168390.716,0.000,14.160,10.742,0.488,-28.809
1711168390.720,26.367,14.648,8.789,5.371,2.441
1711168390.723,-10.742,19.043,10.742,18.066,30.273
1711168390.727,-20.996,18.066,10.742,11.719,10.742
1711168390.731,25.879,18.555,9.766,2.930,-31.738
1711168390.735,63.965,18.066,9.766,3.418,-20.996
1711168390.739,23.926,13.184,12.207,2.441,-7.324
1711168390.743,-10.254,14.648,13.672,15.137,38.086
1711168390.747,29.297,14.160,10.254,21.973,51.270
1711168390.751,60.059,14.648,7.812,3.418,2.930
1711168390.755,17.578,12.207,8.789,2.441,-38.574
1711168390.759,-14.648,13.184,10.254,16.602,9.766
1711168390.762,6.836,20.020,11.230,13.672,57.617
1711168390.766,35.645,20.508,12.207,9.277,74.219
1711168390.770,27.832,19.043,15.625,12.207,60.059
1711168390.774,-8.789,21.973,13.672,12.207,71.289
1711168390.778,-5.371,22.949,12.695,20.020,104.492
1711168390.782,48.828,20.996,15.137,24.414,101.074
1711168390.786,64.453,21.973,13.672,35.156,58.105
1711168390.790,6.836,24.414,12.695,29.297,14.648
1711168390.794,-15.137,22.461,10.254,12.207,0.000
1711168390.798,22.461,11.719,8.789,5.859,-26.367
1711168390.802,42.969,6.836,5.371,-6.836,-5.371
1711168390.805,18.066,17.578,0.488,-0.977,17.578
1711168390.809,-8.301,21.484,0.000,14.648,-8.301
1711168390.813,0.000,18.555,0.000,13.672,14.648
1711168390.817,0.000,13.672,0.488,7.324,12.207
1711168390.821,0.000,7.324,1.953,14.648,9.277
1711168390.825,0.000,4.395,6.348,28.809,3.418
1711168390.829,0.000,1.953,9.766,29.297,17.090
1711168390.833,0.000,3.906,15.137,20.996,8.789
1711168390.837,0.000,12.207,17.090,16.113,-60.059
1711168390.841,0.000,19.531,14.648,25.391,-25.391
1711168390.845,0.000,21.973,10.742,26.367,58.105
1711168390.848,0.000,24.902,11.719,5.371,24.414
1711168390.852,0.000,20.996,14.160,4.395,-16.602
1711168390.856,0.000,7.812,17.090,24.414,24.902
1711168390.860,21.973,11.719,0.000,22.949,51.270
1711168390.864,65.918,21.973,0.000,8.789,140.625
1711168390.868,33.691,20.020,0.000,11.719,63.477
1711168390.872,-18.555,16.602,0.000,28.809,32.715
1711168390.876,-4.395,20.996,0.000,40.527,111.328
1711168390.880,36.621,25.879,0.000,26.855,35.645
1711168390.884,40.527,32.715,0.000,17.578,35.156
1711168390.887,-0.977,32.227,0.000,19.043,74.707
1711168390.891,-11.230,22.949,0.000,23.438,50.781
1711168390.895,23.926,26.367,0.000,25.879,39.062
1711168390.899,42.969,27.832,0.000,28.809,25.879
1711168390.903,7.812,20.996,0.000,36.621,35.645
1711168390.907,9.766,27.832,28.320,52.734,45.410
1711168390.911,9.766,33.203,27.832,51.758,54.199
1711168390.915,55.664,26.367,24.902,24.902,66.406
1711168390.919,77.637,31.738,21.973,21.484,6.348
1711168390.923,45.898,42.480,26.855,41.992,20.508
1711168390.927,14.648,44.434,33.691,46.387,62.012
1711168390.930,39.062,45.898,37.598,38.086,35.156
1711168390.934,79.102,42.969,34.180,37.598,56.152
1711168390.938,51.758,41.016,30.762,33.691,13.672
1711168390.942,0.000,39.062,28.320,28.320,-4.395
1711168390.946,18.066,34.668,25.879,25.879,10.742
1711168390.950,58.105,32.227,20.508,21.973,1.953
1711168390.954,0.000,35.156,17.578,25.879,42.969
1711168390.958,0.000,38.086,19.531,33.691,78.613
1711168390.962,0.000,36.621,22.461,42.480,42.480
1711168390.966,0.000,33.691,25.879,42.969,49.316
1711168390.970,0.000,33.203,24.414,33.691,83.496
1711168390.973,0.000,33.203,26.367,31.738,66.895
1711168390.977,0.000,37.598,30.273,33.203,13.672
1711168390.981,0.000,45.410,29.785,31.250,-5.371
1711168390.985,0.000,44.434,27.832,32.227,72.754
1711168390.989,0.000,40.527,24.414,42.969,54.688
1711168390.993,0.000,35.645,23.926,41.016,38.086
1711168390.997,0.000,34.180,25.879,40.039,13.672
1711168391.001,61.035,33.203,0.000,29.297,2.930
1711168391.005,43.457,28.320,0.000,20.508,35.645
1711168391.009,10.742,30.762,0.000,34.668,19.043
1711168391.013,29.785,34.180,0.000,33.691,21.973
1711168391.016,68.359,29.297,0.000,18.555,1.465
1711168391.020,55.176,23.438,0.000,23.926,-30.273
1711168391.024,4.395,23.438,0.000,42.969,-0.488
1711168391.028,2.930,27.832,0.000,41.504,20.020
1711168391.032,47.852,26.367,0.000,27.832,4.395
1711168391.036,61.523,21.484,0.000,29.297,50.293
1711168391.040,26.855,22.949,0.000,37.109,26.367
1711168391.044,9.277,26.367,0.000,41.992,-28.809
1711168391.048,50.781,21.973,21.484,45.898,-27.832
1711168391.052,74.219,18.066,16.113,36.621,-13.184
1711168391.055,36.133,20.020,18.066,35.156,-31.250
1711168391.059,5.371,21.973,20.508,38.574,-32.227
1711168391.063,25.391,17.090,19.531,31.738,61.035
1711168391.067,59.082,18.066,20.020,29.785,48.340
1711168391.071,48.828,20.020,20.020,22.949,34.180
1711168391.075,17.090,15.625,19.531,20.996,105.469
1711168391.079,29.785,13.184,17.090,28.809,73.242
1711168391.083,61.035,16.113,19.531,33.691,51.270
1711168391.087,50.781,21.973,20.508,34.180,78.125
1711168391.091,3.418,21.484,14.648,37.598,88.867
1711168391.095,0.000,15.625,13.672,43.457,55.176
1711168391.098,0.000,14.648,15.137,30.762,3.906
1711168391.102,0.000,15.625,17.090,25.391,-31.738
1711168391.106,0.000,9.277,15.137,45.410,23.438
1711168391.110,0.000,0.488,13.672,53.223,55.176
1711168391.114,0.000,2.930,16.113,30.762,63.965
1711168391.118,0.000,12.695,20.508,40.039,61.035
1711168391.122,0.000,2.930,26.367,46.875,24.902
1711168391.126,0.000,-5.859,27.344,35.156,37.598
1711168391.130,0.000,-6.836,29.297,48.340,20.020
1711168391.134,0.000,-11.719,38.574,45.898,-9.277
1711168391.137,0.000,-11.230,48.340,36.133,35.156
1711168391.141,-6.348,-7.812,0.000,55.176,50.293
1711168391.145,33.203,-7.812,0.000,63.965,62.988
1711168391.149,63.477,-7.324,0.000,49.805,76.660
1711168391.153,31.250,-10.254,0.000,51.270,73.730
1711168391.157,0.977,-20.508,0.000,64.941,36.133
1711168391.161,41.504,-14.160,0.000,60.547,36.621
1711168391.165,84.961,-11.230,0.000,60.059,86.426
1711168391.169,50.293,-68.359,0.000,59.570,21.973
1711168391.173,-4.883,-84.473,0.000,61.035,-2.930
1711168391.177,11.719,-43.945,0.000,64.941,16.602
1711168391.180,51.758,-28.320,0.000,64.453,-2.441
1711168391.184,34.180,-17.578,0.000,60.547,-16.602
1711168391.188,1.465,-20.020,53.223,56.152,-7.324
1711168391.192,21.973,-20.020,49.316,61.035,44.922
1711168391.196,64.941,-11.230,42.969,51.270,50.781
1711168391.200,78.613,-11.719,38.086,50.293,27.344
1711168391.204,45.410,-13.184,32.715,63.965,25.391
1711168391.208,33.203,-15.137,32.227,72.266,69.824
1711168391.212,78.613,-17.578,33.691,75.684,18.555
1711168391.216,99.609,-15.625,28.320,76.660,-16.113
1711168391.219,64.453,-14.648,21.484,71.289,17.578
1711168391.223,32.715,-13.184,25.391,68.359,-0.488
1711168391.227,61.035,-11.719,27.344,71.289,-17.090
1711168391.231,91.309,-9.766,26.367,80.078,3.906
1711168391.235,123.535,-10.254,28.320,78.125,14.160
1711168391.239,96.680,-9.766,27.344,77.637,37.598
1711168391.243,61.035,-12.695,20.508,77.637,88.379
1711168391.247,78.125,-18.555,17.578,64.941,70.312
1711168391.251,120.117,-18.066,20.020,63.477,22.461
1711168391.255,97.168,-20.996,24.414,68.848,2.441
1711168391.259,46.875,-23.926,26.367,75.684,26.367
1711168391.262,57.129,-24.414,25.391,85.938,55.664
1711168391.266,99.121,-27.344,26.367,85.449,50.781
1711168391.270,104.004,-28.809,26.855,74.219,58.594
1711168391.274,63.965,-24.414,25.879,78.125,16.113
1711168391.278,64.453,-20.508,27.832,85.938,0.488
1711168391.282,104.492,-20.996,28.809,81.055,39.062
1711168391.286,120.117,-23.926,25.879,81.543,53.711
1711168391.290,86.426,-28.809,24.902,87.891,98.145
1711168391.294,61.035,-31.250,28.320,90.332,43.457
1711168391.298,98.633,-26.367,27.344,89.844,-21.973
1711168391.301,130.371,-26.855,22.461,82.520,1.953
1711168391.305,97.656,-30.762,24.414,83.496,42.969
1711168391.309,58.594,-34.668,24.414,93.750,55.176
1711168391.313,94.727,-36.621,25.391,91.797,18.555
1711168391.317,132.812,-32.227,24.414,97.656,72.266
1711168391.321,103.027,-30.762,19.043,97.168,44.922
1711168391.325,58.105,-27.344,20.996,89.355,35.645
1711168391.329,63.965,-27.344,0.000,91.309,11.230
1711168391.333,104.492,-37.598,0.000,90.332,-57.617
1711168391.337,115.234,-38.574,0.000,92.773,10.254
1711168391.341,75.684,-31.738,0.000,101.074,44.922
1711168391.344,67.383,-30.762,0.000,107.910,14.648
1711168391.348,119.629,-35.645,0.000,99.609,38.574
1711168391.352,137.207,-41.016,0.000,89.355,46.387
1711168391.356,99.121,-41.016,0.000,100.586,27.344
1711168391.360,72.266,-43.945,0.000,111.816,61.523
1711168391.364,102.051,-47.852,0.000,101.074,63.477
1711168391.368,147.461,-42.969,0.000,95.703,44.434
1711168391.372,130.371,-39.551,0.000,103.516,46.875
1711168391.376,106.934,-40.527,36.133,117.188,55.176
1711168391.380,117.188,-41.504,35.645,120.117,36.133
1711168391.384,142.090,-47.852,26.855,93.262,58.594
1711168391.387,129.395,-46.387,25.879,96.191,65.430
1711168391.391,67.383,-41.992,25.391,111.816,14.648
1711168391.395,71.289,-41.992,23.926,104.004,46.875
1711168391.399,123.047,-41.992,23.926,105.957,65.918
1711168391.403,142.090,-41.504,24.902,110.352,34.180
1711168391.407,95.215,-44.922,26.855,110.352,56.641
1711168391.411,65.918,-51.270,28.320,116.699,18.555
1711168391.415,117.676,-53.223,28.320,116.699,-34.180
1711168391.419,150.391,-54.688,29.785,108.398,2.930
1711168391.423,110.840,-51.270,31.250,110.840,-18.066
1711168391.427,81.055,-50.293,31.250,125.000,-9.766
1711168391.430,123.047,-53.711,30.762,121.094,8.789
1711168391.434,168.945,-50.781,28.809,115.723,17.090
1711168391.438,154.785,-44.922,32.227,116.699,62.988
1711168391.442,110.840,-44.922,36.621,111.328,76.660
1711168391.446,131.348,-44.922,38.086,113.281,69.336
1711168391.450,188.965,-45.410,37.109,108.398,56.641
1711168391.454,177.734,-50.293,36.621,106.445,65.430
1711168391.458,122.559,-50.781,35.156,111.328,77.148
1711168391.462,131.836,-46.387,38.574,118.164,56.641
1711168391.466,212.402,-52.734,43.457,123.047,62.988
1711168391.469,239.258,-61.523,0.000,120.117,69.824
1711168391.473,198.242,-53.223,0.000,125.488,77.148
1711168391.477,181.641,-43.945,0.000,140.137,78.613
1711168391.481,225.586,-46.875,0.000,125.488,15.625
1711168391.485,257.812,-54.199,0.000,105.469,39.551
1711168391.489,204.102,-54.688,0.000,112.305,73.242
1711168391.493,154.785,-55.176,0.000,128.418,69.336
1711168391.497,190.918,-55.176,0.000,124.512,30.762
1711168391.501,239.746,-56.152,0.000,115.723,14.648
1711168391.505,207.031,-59.082,0.000,128.418,9.277
1711168391.509,144.043,-62.012,0.000,127.441,9.766
1711168391.512,148.438,-66.895,0.000,118.652,30.762
1711168391.516,0.000,-70.312,50.293,125.488,41.504
1711168391.520,0.000,-63.477,50.293,135.742,72.754
1711168391.524,0.000,-58.105,51.270,134.766,64.453
1711168391.528,0.000,-63.477,52.246,134.277,56.152
1711168391.532,0.000,-70.312,52.734,132.812,37.598
1711168391.536,0.000,-66.895,56.641,125.000,-6.348
1711168391.540,0.000,-62.500,58.105,123.535,-18.555
1711168391.544,0.000,-62.988,58.594,129.883,-7.812
1711168391.548,0.000,-64.453,56.641,138.184,16.602
1711168391.551,0.000,-66.895,53.223,144.531,31.250
1711168391.555,0.000,-61.523,51.270,128.906,18.555
1711168391.559,0.000,-60.059,52.246,113.770,7.324
1711168391.563,197.754,-69.336,55.176,121.094,-19.531
1711168391.567,206.055,-71.777,52.246,120.117,52.246
1711168391.571,153.320,-63.477,50.293,115.723,68.848
1711168391.575,131.348,-63.965,48.828,124.023,20.020
1711168391.579,179.688,-68.359,46.875,126.465,39.551
1711168391.583,198.242,-68.359,50.781,122.559,-6.836
1711168391.587,134.766,-73.242,50.781,120.605,30.762
1711168391.591,99.121,-69.336,52.246,122.559,91.797
1711168391.594,149.414,-64.453,54.688,132.812,-4.395
1711168391.598,167.969,-75.195,51.758,122.559,-18.066
1711168391.602,104.004,-78.125,51.270,124.023,32.227
1711168391.606,49.805,-64.941,51.758,138.184,82.031
1711168391.610,21.484,-58.105,48.340,133.301,83.008
1711168391.614,45.898,-66.895,44.434,119.629,-1.953
1711168391.618,82.520,-72.266,44.434,109.863,11.719
1711168391.622,44.922,-69.824,48.828,118.164,48.340
1711168391.626,-14.648,-64.453,49.316,119.629,20.996
1711168391.630,19.043,-59.082,49.316,110.840,18.555
1711168391.633,83.008,-63.477,46.875,102.539,27.344
1711168391.637,58.594,-62.012,43.457,109.375,7.324
1711168391.641,-15.137,-56.641,44.434,125.977,-18.555
1711168391.645,-20.020,-55.664,49.805,124.023,18.066
1711168391.649,39.551,-50.781,54.199,117.188,36.621
1711168391.653,75.684,-52.734,51.270,117.676,1.953
1711168391.657,35.156,-59.082,43.945,115.723,15.137
1711168391.661,11.719,-58.594,43.945,125.977,57.129
1711168391.665,68.848,-52.734,50.781,134.766,81.543
1711168391.669,111.816,-44.434,50.781,124.512,3.418
1711168391.673,73.730,-39.062,49.805,122.070,-3.418
1711168391.676,47.363,-40.039,50.781,117.676,32.227
1711168391.680,80.566,-40.039,48.828,105.469,69.336
1711168391.684,106.934,-41.016,57.617,114.746,77.637
1711168391.688,85.449,-39.062,64.941,120.117,40.527
1711168391.692,41.992,-35.156,62.988,122.070,44.922
1711168391.696,55.176,-32.715,63.477,120.605,39.551
1711168391.700,128.906,-28.809,65.430,127.930,63.965
1711168391.704,138.672,-29.297,0.000,0.000,51.270
1711168391.708,110.840,-27.832,0.000,0.000,7.324
1711168391.712,129.883,-23.926,0.000,0.000,20.996
1711168391.716,165.039,-25.391,0.000,0.000,15.625
1711168391.719,189.941,-29.785,0.000,0.000,-26.855
1711168391.723,174.316,-32.227,0.000,0.000,9.766
1711168391.727,147.461,-35.645,0.000,0.000,12.695
1711168391.731,167.969,-32.715,0.000,0.000,11.230
1711168391.735,187.012,-22.949,0.000,0.000,52.734
1711168391.739,147.461,-16.113,0.000,0.000,39.551
1711168391.743,96.680,-16.113,0.000,0.000,29.785
1711168391.747,121.582,-20.020,0.000,0.000,1.465
1711168391.751,190.430,-20.020,78.125,104.492,9.277
1711168391.755,211.426,-21.484,81.055,110.352,46.875
1711168391.758,186.035,-20.508,80.078,116.699,70.312
1711168391.762,184.570,-13.184,76.172,116.211,5.859
1711168391.766,214.844,-12.695,72.266,119.629,-20.996
1711168391.770,209.961,-17.578,74.219,120.605,8.301
1711168391.774,156.738,-19.043,71.777,105.469,70.801
1711168391.778,134.766,-17.090,68.848,105.469,92.285
1711168391.782,180.664,-15.625,68.359,95.215,-3.418
1711168391.786,206.055,-17.090,69.824,89.355,-19.531
1711168391.790,167.969,-15.137,72.266,106.445,14.648
1711168391.794,148.438,-17.090,71.777,111.816,41.016
1711168391.798,0.000,-15.137,0.000,116.211,85.449
1711168391.801,0.000,-7.812,0.000,108.887,108.398
1711168391.805,0.000,-5.371,0.000,96.680,37.598
1711168391.809,0.000,-1.953,0.000,102.051,-12.695
1711168391.813,0.000,3.418,0.000,108.398,14.648
1711168391.817,0.000,12.695,0.000,111.816,29.297
1711168391.821,0.000,19.531,0.000,116.211,46.875
1711168391.825,0.000,22.461,0.000,117.676,20.020
1711168391.829,0.000,28.809,0.000,110.352,0.000
1711168391.833,0.000,36.133,0.000,108.887,-2.930
1711168391.837,0.000,37.109,0.000,111.816,39.062
1711168391.840,0.000,34.668,0.000,111.816,72.266
1711168391.844,17.090,34.668,67.871,111.328,17.578
1711168391.848,56.152,33.203,70.801,104.492,-10.254
1711168391.852,84.473,35.156,75.684,106.445,14.648
1711168391.856,53.711,42.480,83.984,108.887,16.113
1711168391.860,47.852,46.875,88.867,104.004,30.762
1711168391.864,65.430,47.363,86.426,88.867,35.645
1711168391.868,74.219,46.875,82.031,74.707,24.414
1711168391.872,59.570,51.270,76.660,85.938,52.734
1711168391.876,32.227,56.641,68.359,104.004,43.945
1711168391.880,44.434,54.688,62.500,102.051,3.906
1711168391.883,62.988,56.641,63.965,80.566,3.906
1711168391.887,47.852,62.988,63.965,71.777,17.090
1711168391.891,-2.930,67.871,64.941,90.332,23.926
1711168391.895,-34.668,69.824,56.152,86.426,4.395
1711168391.899,-22.461,68.359,32.715,60.547,-6.836
1711168391.903,-14.648,71.289,30.762,62.988,6.836
1711168391.907,-33.691,69.824,40.527,76.660,8.301
1711168391.911,-35.156,63.965,38.086,72.266,24.902
1711168391.915,0.977,69.336,44.922,68.848,30.273
1711168391.919,12.695,84.961,51.270,68.848,7.324
1711168391.923,-17.090,99.121,48.340,81.055,-7.324
1711168391.926,-20.508,99.121,55.664,85.938,18.555
1711168391.930,-8.301,95.215,52.246,48.340,63.965
1711168391.934,-1.465,87.891,53.223,23.438,43.457
1711168391.938,-8.789,89.355,63.477,8.301,50.781
1711168391.942,-40.527,95.703,63.477,-9.766,100.098
1711168391.946,-61.035,85.449,61.523,-48.828,52.734
1711168391.950,-62.012,83.984,66.406,-85.938,14.160
1711168391.954,-92.773,92.285,71.777,-105.469,15.625
1711168391.958,-165.527,91.797,64.941,-141.113,-32.227
1711168391.962,-190.430,94.238,50.293,-162.598,-56.152
1711168391.966,-148.438,91.309,47.852,-165.527,-0.977
1711168391.969,-134.277,79.590,46.875,-157.227,35.156
1711168391.973,-171.387,76.172,42.969,-135.254,63.965
1711168391.977,-184.570,89.355,50.781,-120.605,127.930
1711168391.981,-133.789,93.750,60.059,-106.445,105.469
1711168391.985,-89.844,86.426,65.918,-86.914,33.691
1711168391.989,-107.910,99.609,72.266,-63.965,66.406
1711168391.993,-115.723,119.629,76.660,-33.203,75.684
1711168391.997,-76.172,96.191,80.078,-30.273,70.312
1711168392.001,-24.902,63.965,83.496,-52.246,61.523
1711168392.005,-10.254,63.965,82.520,-72.754,35.156
1711168392.009,-13.184,68.848,84.961,-51.758,15.137
1711168392.012,20.508,74.707,95.703,-19.043,1.953
1711168392.016,78.125,78.125,95.215,-24.414,-1.953
1711168392.020,108.398,80.078,91.309,-22.461,-9.766
1711168392.024,80.566,89.844,94.727,-1.953,20.508
1711168392.028,81.055,100.098,100.586,19.531,38.574
1711168392.032,132.812,104.492,101.562,31.738,-14.648
1711168392.036,137.207,109.863,100.098,47.852,2.441
1711168392.040,94.727,112.793,102.051,68.848,36.133
1711168392.044,75.195,115.234,101.074,87.402,7.324
1711168392.048,108.398,125.000,99.121,84.961,-3.906
1711168392.051,130.859,136.719,98.145,74.707,-4.883
1711168392.055,85.938,146.973,100.586,83.984,66.895
1711168392.059,32.227,158.203,99.609,101.562,76.172
1711168392.063,22.949,163.574,97.168,103.027,57.617
1711168392.067,29.785,159.668,95.703,80.078,34.668
1711168392.071,-6.348,159.668,88.867,77.148,-45.410
1711168392.075,-77.637,162.109,90.820,92.285,5.859
1711168392.079,-97.656,166.992,94.238,99.121,69.336
1711168392.083,-69.336,171.387,99.609,103.027,4.883
1711168392.087,-60.059,177.734,104.980,106.934,6.348
1711168392.091,-80.078,178.711,104.492,117.676,40.527
1711168392.094,-84.473,177.246,104.492,119.141,28.320
1711168392.098,-37.109,181.641,103.516,107.422,-12.695
1711168392.102,-7.324,187.012,104.980,112.793,-14.160
1711168392.106,-30.273,194.336,104.004,102.539,15.625
1711168392.110,-46.387,198.242,100.586,91.309,30.762
1711168392.114,-21.973,199.219,99.121,109.375,28.320
1711168392.118,12.207,201.172,102.539,114.258,-24.414
1711168392.122,-20.996,202.637,103.027,106.934,-24.414
1711168392.126,-88.867,211.914,102.539,115.723,14.160
1711168392.130,-108.887,217.773,107.422,126.465,7.324
1711168392.134,-91.797,181.152,116.211,123.047,37.109
1711168392.137,-95.215,143.555,122.070,117.676,19.043
1711168392.141,-137.207,146.484,122.070,123.047,26.855
1711168392.145,-147.461,154.785,118.164,132.324,61.035
1711168392.149,-94.238,157.715,117.676,133.789,38.086
1711168392.153,-61.523,166.504,131.836,124.023,35.645
1711168392.157,-82.520,173.340,141.602,129.395,8.789
1711168392.161,-93.262,177.734,141.113,124.512,-17.090
1711168392.165,-50.781,187.500,142.090,85.449,27.832
1711168392.169,6.836,196.777,137.695,68.359,83.496
1711168392.173,0.000,196.289,131.348,75.195,58.594
1711168392.176,0.000,193.359,132.812,74.707,58.105
1711168392.180,0.000,213.379,133.789,70.801,35.645
1711168392.184,0.000,229.980,134.277,78.613,-21.484
1711168392.188,0.000,233.887,132.324,95.703,30.762
1711168392.192,0.000,236.816,125.977,104.492,41.016
1711168392.196,0.000,238.770,125.000,106.445,6.836
1711168392.200,0.000,242.676,127.441,102.539,-1.953
1711168392.204,0.000,235.840,126.465,103.027,-7.324
1711168392.208,0.000,230.469,129.883,137.695,51.758
1711168392.212,0.000,234.863,138.184,148.438,52.734
1711168392.216,0.000,234.863,140.137,135.742,3.418
1711168392.219,11.230,224.121,134.766,133.789,20.508
1711168392.223,-4.395,213.379,132.812,96.680,63.477
1711168392.227,12.207,206.543,130.371,49.805,33.691
1711168392.231,35.645,204.590,128.418,36.133,16.602
1711168392.235,19.531,204.590,137.695,37.109,61.523
1711168392.239,-24.414,198.242,155.762,39.062,63.477
1711168392.243,0.488,192.871,164.062,42.480,54.199
1711168392.247,58.105,182.617,166.016,53.711,44.922
1711168392.251,59.082,161.621,167.480,69.824,62.500
1711168392.255,-2.441,148.438,175.293,72.754,54.688
1711168392.258,-34.668,145.996,182.617,78.613,0.488
1711168392.262,-22.461,129.883,182.129,87.402,6.348
1711168392.266,-37.109,125.000,0.000,80.078,22.461
1711168392.270,-90.332,136.230,0.000,77.637,2.930
1711168392.274,-154.785,139.160,0.000,82.520,13.184
1711168392.278,-165.039,148.926,0.000,81.055,43.457
1711168392.282,-146.484,164.062,0.000,79.102,48.340
1711168392.286,-221.680,180.664,0.000,89.355,26.367
1711168392.290,-299.805,181.152,0.000,114.746,0.977
1711168392.294,-307.129,153.320,0.000,133.789,12.207
1711168392.297,-307.129,129.883,0.000,128.418,41.016
1711168392.301,-325.684,135.254,0.000,98.145,63.965
1711168392.305,-408.203,94.238,0.000,81.055,11.719
1711168392.309,-440.918,36.133,0.000,54.199,-4.883
1711168392.313,-850.098,35.645,142.578,7.324,14.160
1711168392.317,-924.805,36.621,132.812,1.953,-29.785
1711168392.321,-969.238,43.945,125.000,12.207,-48.828
1711168392.325,-967.773,55.176,121.094,20.996,-16.602
1711168392.329,-968.262,61.035,120.605,23.926,89.355
1711168392.333,-969.238,73.730,124.512,24.902,88.379
1711168392.337,-969.238,66.406,133.789,50.293,24.414
1711168392.340,-965.332,58.105,143.555,95.215,25.879
1711168392.344,-970.703,66.895,142.090,118.164,21.484
1711168392.348,-952.637,75.684,143.066,107.910,20.996
1711168392.352,-828.125,83.008,149.414,108.398,42.480
1711168392.356,-735.840,89.844,146.973,164.062,76.172
1711168392.360,0.000,98.633,136.719,154.297,71.289
1711168392.364,0.000,109.375,126.465,86.914,60.547
1711168392.368,0.000,120.117,118.652,44.434,48.340
1711168392.372,0.000,126.465,104.980,-7.324,4.883
1711168392.376,0.000,134.766,93.750,-48.828,26.367
1711168392.380,0.000,145.508,88.867,-65.918,39.551
1711168392.383,0.000,151.367,89.844,-56.641,31.738
1711168392.387,0.000,162.598,87.891,-49.805,64.941
1711168392.391,0.000,181.641,85.938,-34.668,46.875
1711168392.395,0.000,190.430,86.914,-17.578,82.031
1711168392.399,0.000,194.824,89.355,3.418,78.125
1711168392.403,0.000,203.613,91.309,15.137,46.387
1711168392.407,-63.477,205.078,0.000,30.762,12.695
1711168392.411,-146.484,204.102,0.000,51.758,-9.766
1711168392.415,-90.332,220.703,0.000,32.715,40.527
1711168392.419,-37.109,194.824,0.000,10.742,72.266
1711168392.422,-87.402,100.586,0.000,23.926,81.543
1711168392.426,-161.133,49.316,0.000,19.043,34.668
1711168392.430,-171.387,58.105,0.000,21.484,-13.672
1711168392.434,-152.832,81.055,0.000,33.203,6.836
1711168392.438,-201.172,91.309,0.000,30.762,51.758
1711168392.442,-259.277,98.633,0.000,31.250,49.316
1711168392.446,-194.336,125.977,0.000,33.691,55.664
1711168392.450,-42.969,137.207,0.000,23.926,41.992
1711168392.454,0.977,123.535,151.855,8.301,-22.461
1711168392.458,-49.316,127.441,169.434,11.230,-3.906
1711168392.462,-37.109,149.902,183.594,12.695,60.059
1711168392.465,32.227,163.574,179.688,13.184,40.039
1711168392.469,72.754,162.598,175.781,12.207,26.367
1711168392.473,51.758,169.922,174.316,8.789,49.316
1711168392.477,27.832,174.316,171.387,32.715,61.523
1711168392.481,72.266,173.828,166.504,26.367,65.430
1711168392.485,135.254,180.664,160.645,12.207,26.855
1711168392.489,140.137,187.012,161.133,41.504,5.371
1711168392.493,96.191,187.988,153.320,61.523,-11.230
1711168392.497,49.316,189.941,142.090,53.711,33.203
1711168392.501,-14.160,191.895,141.113,59.570,52.246
1711168392.505,-138.184,189.453,162.598,55.664,21.973
1711168392.508,-289.551,186.523,185.059,23.926,86.426
1711168392.512,-372.559,183.594,182.129,10.254,81.055
1711168392.516,-382.324,183.105,173.828,7.324,17.090
1711168392.520,-404.297,187.012,164.551,1.953,43.457
1711168392.524,-462.891,197.266,169.434,8.301,82.031
1711168392.528,-512.207,206.543,190.918,19.043,4.395
1711168392.532,-482.910,209.473,214.844,28.809,-26.367
1711168392.536,-430.664,209.961,223.145,34.180,18.066
1711168392.540,-410.156,218.262,230.469,46.875,13.672
1711168392.544,-351.562,228.516,250.977,78.125,-3.418
1711168392.547,-231.934,234.375,251.953,85.938,30.273
1711168392.551,-88.867,239.258,259.766,91.309,26.855
1711168392.555,-40.039,242.676,277.344,125.488,41.504
1711168392.559,-65.430,239.746,278.320,126.465,5.859
1711168392.563,-31.250,237.793,275.391,39.062,-7.324
1711168392.567,39.551,245.117,275.391,-8.789,49.805
1711168392.571,62.988,238.281,270.508,4.395,9.766
1711168392.575,61.523,219.238,269.043,-6.348,-7.812
1711168392.579,76.660,211.914,272.949,-3.418,20.020
1711168392.583,128.418,216.309,269.043,12.695,18.555
1711168392.587,215.332,198.730,270.020,22.461,20.996
1711168392.590,277.832,153.809,267.578,26.367,42.480
1711168392.594,318.359,156.738,277.344,26.855,50.781
1711168392.598,375.977,178.711,307.617,35.645,56.641
1711168392.602,373.535,177.734,318.848,41.016,32.715
1711168392.606,271.973,175.781,319.336,32.227,14.648
1711168392.610,185.059,187.988,325.195,39.551,39.551
1711168392.614,185.547,206.543,333.008,44.434,15.625
1711168392.618,240.234,213.379,335.938,45.410,-11.719
1711168392.622,254.395,207.520,344.727,86.914,33.203
1711168392.626,196.289,201.660,366.211,108.887,56.152
1711168392.629,211.914,210.449,399.902,105.957,82.031
1711168392.633,299.805,225.098,426.270,107.422,33.691
1711168392.637,310.059,231.445,437.988,83.496,6.348
1711168392.641,0.000,233.398,437.012,43.945,36.621
1711168392.645,0.000,226.562,427.734,9.277,62.988
1711168392.649,0.000,217.773,433.105,-5.859,44.922
1711168392.653,0.000,218.262,440.430,6.836,127.930
1711168392.657,0.000,219.238,434.082,17.578,132.812
1711168392.661,0.000,220.703,418.457,17.578,41.504
1711168392.665,0.000,219.238,419.434,19.043,45.410
1711168392.669,0.000,206.543,396.484,22.949,33.203
1711168392.672,0.000,200.684,418.945,24.414,-10.254
1711168392.676,0.000,199.707,557.617,32.227,-54.199
1711168392.680,0.000,200.684,828.613,39.551,-23.438
1711168392.684,0.000,205.566,-987.305,55.176,33.203
1711168392.688,253.418,209.961,0.000,75.195,9.277
1711168392.692,232.422,212.402,0.000,68.359,-21.484
1711168392.696,263.672,211.914,0.000,53.711,33.203
1711168392.700,291.016,205.566,0.000,70.801,88.379
1711168392.704,288.574,196.777,0.000,86.914,65.918
1711168392.708,300.781,188.965,0.000,96.191,76.660
1711168392.711,354.492,189.453,0.000,115.723,76.172
1711168392.715,380.371,191.895,0.000,106.445,47.363
1711168392.719,423.340,187.988,0.000,44.434,-15.137
1711168392.723,458.008,186.035,0.000,-29.785,2.441
1711168392.727,476.562,187.012,0.000,-45.410,105.957
1711168392.731,511.230,189.453,0.000,-39.551,71.777
1711168392.735,242.676,188.965,619.629,-35.645,69.824
1711168392.739,192.871,189.941,608.398,-31.738,52.734
1711168392.743,77.148,194.336,610.840,-15.625,6.836
1711168392.747,-21.973,188.477,631.348,0.488,48.340
1711168392.751,-33.691,187.012,666.016,15.137,96.191
1711168392.754,-2.441,191.406,678.711,23.438,69.824
1711168392.758,7.324,187.012,643.066,27.832,-8.301
1711168392.762,37.109,189.941,603.027,44.434,-36.133
1711168392.766,144.043,200.195,586.914,39.062,-24.414
1711168392.770,198.730,208.008,581.055,29.297,-39.551
1711168392.774,135.254,204.102,571.289,44.434,-25.879
1711168392.778,93.750,196.777,562.012,44.434,31.738
1711168392.782,136.230,188.965,547.852,68.359,31.738
1711168392.786,175.293,184.570,534.668,78.613,29.785
1711168392.790,138.672,187.500,517.578,6.836,-0.488
1711168392.794,116.211,181.152,507.324,-40.039,-15.137
1711168392.797,162.598,178.711,518.066,-41.992,58.105
1711168392.801,209.961,196.777,518.555,-48.828,41.016
1711168392.805,203.125,225.098,497.559,-40.527,11.230
1711168392.809,213.867,231.934,497.559,-41.016,-12.695
1711168392.813,323.730,234.863,497.070,-58.105,-5.859
1711168392.817,448.730,247.559,387.207,-68.359,-2.930
1711168392.821,488.770,252.930,248.535,-68.359,5.859
1711168392.825,468.750,258.301,197.266,-42.480,25.391
1711168392.829,0.000,258.301,0.000,-20.020,0.000
1711168392.833,0.000,251.465,0.000,-11.230,31.738
1711168392.837,0.000,238.281,0.000,-21.484,49.805
1711168392.840,0.000,208.984,0.000,-46.387,51.270
1711168392.844,0.000,189.453,0.000,-29.297,35.156
1711168392.848,0.000,201.172,0.000,-18.555,20.996
1711168392.852,0.000,214.355,0.000,-18.066,48.340
1711168392.856,0.000,217.285,0.000,5.371,46.387
1711168392.860,0.000,203.613,0.000,22.461,46.875
1711168392.864,0.000,174.316,0.000,26.367,56.152
1711168392.868,0.000,151.855,0.000,0.977,-0.488
1711168392.872,0.000,148.438,0.000,-23.438,-7.324
1711168392.876,208.984,154.297,-833.008,-15.137,41.504
1711168392.879,255.371,153.809,-943.848,-18.066,-5.371
1711168392.883,367.188,149.414,-965.332,-23.926,-20.020
1711168392.887,421.875,139.160,-971.680,-15.625,23.438
1711168392.891,395.508,123.535,-935.547,1.953,42.480
1711168392.895,335.938,106.445,-826.660,4.395,26.367
1711168392.899,274.414,93.750,-771.484,-0.977,43.945
1711168392.903,201.660,84.473,-747.070,-1.953,99.121
1711168392.907,83.984,74.707,-714.355,3.906,61.523
1711168392.911,8.301,71.289,-670.898,5.859,18.066
1711168392.915,13.672,72.754,-604.004,7.324,45.898
1711168392.918,30.273,70.801,-545.410,18.555,45.410
1711168392.922,-9.766,66.895,-498.047,57.617,9.766
1711168392.926,-93.262,64.453,-431.152,71.289,12.207
1711168392.930,-88.379,61.035,-354.980,41.504,94.727
1711168392.934,-32.715,61.035,-295.898,44.922,88.867
1711168392.938,-45.410,65.918,-241.211,20.996,45.898
1711168392.942,-69.824,63.477,-217.285,-57.129,71.289
1711168392.946,-22.949,61.035,-207.520,-80.078,84.961
1711168392.950,42.480,61.035,-156.250,-68.359,107.422
1711168392.954,41.504,48.828,-88.379,-50.781,22.949
1711168392.958,-2.930,41.992,-28.320,-15.137,21.484
1711168392.961,-27.832,42.480,16.602,-4.395,20.020
1711168392.965,-19.043,44.434,30.273,5.371,7.812
1711168392.969,0.000,45.898,0.000,9.277,65.918
1711168392.973,0.000,49.316,0.000,9.277,30.273
1711168392.977,0.000,47.363,0.000,9.277,-8.301
1711168392.981,0.000,39.551,0.000,-9.277,-4.395
1711168392.985,0.000,38.574,0.000,15.625,-27.344
1711168392.989,0.000,34.668,0.000,35.156,12.695
1711168392.993,0.000,32.227,0.000,19.043,0.000
1711168392.997,0.000,35.156,0.000,19.043,-20.508
1711168393.001,0.000,30.273,0.000,25.391,27.344
1711168393.004,0.000,29.297,0.000,35.156,24.902
1711168393.008,0.000,36.621,0.000,34.668,24.414
1711168393.012,0.000,41.992,0.000,25.391,82.520
1711168393.016,506.836,43.945,81.055,20.996,75.684
1711168393.020,560.547,46.875,120.605,19.043,35.156
1711168393.024,505.859,48.340,147.949,9.766,64.453
1711168393.028,474.609,41.504,162.598,24.902,52.734
1711168393.032,515.625,35.156,173.828,31.738,6.836
1711168393.036,496.094,32.715,184.082,23.926,0.977
1711168393.040,418.945,35.156,181.152,32.227,51.758
1711168393.044,445.312,44.434,177.734,45.410,37.598
1711168393.047,475.586,44.434,175.781,48.828,27.344
1711168393.051,443.848,37.109,172.852,44.434,72.266
1711168393.055,377.441,38.086,178.223,35.645,83.496
1711168393.059,302.246,40.039,186.035,40.039,72.754
1711168393.063,315.430,45.410,0.000,53.223,74.707
1711168393.067,354.980,56.641,0.000,32.227,43.457
1711168393.071,312.988,61.035,0.000,17.578,-8.301
1711168393.075,222.168,60.059,0.000,-1.465,-2.441
1711168393.079,213.867,56.152,0.000,-30.762,25.391
1711168393.083,315.430,61.035,0.000,-46.387,22.461
1711168393.087,313.477,65.430,0.000,-46.875,16.113
1711168393.090,195.312,63.477,0.000,-31.738,-12.695
1711168393.094,88.379,59.082,0.000,-23.926,-22.949
1711168393.098,-25.879,53.223,0.000,-16.602,-12.695
1711168393.102,-161.621,60.059,0.000,-1.953,2.930
1711168393.106,-282.227,72.754,0.000,10.742,11.719
1711168393.110,-306.152,76.172,185.547,21.484,38.574
1711168393.114,-253.418,74.707,171.875,5.371,101.074
1711168393.118,-187.500,76.172,166.016,-12.207,64.453
1711168393.122,-196.289,85.938,171.875,5.371,53.711
1711168393.126,-247.559,89.355,169.922,27.344,55.664
1711168393.129,-222.656,83.008,169.922,16.113,47.363
1711168393.133,-156.250,75.195,179.688,24.414,28.320
1711168393.137,-129.883,72.266,181.152,4.883,7.324
1711168393.141,-60.059,74.219,166.504,-43.945,58.105
1711168393.145,25.391,68.848,162.109,-48.828,33.203
1711168393.149,67.871,63.477,167.969,-42.969,45.410
1711168393.153,114.746,69.336,169.434,-29.297,68.359
1711168393.157,0.000,83.984,166.992,-18.066,60.547
1711168393.161,0.000,85.938,158.203,-14.648,81.055
1711168393.165,0.000,75.684,141.113,-8.789,66.895
1711168393.169,0.000,65.430,138.184,5.371,54.199
1711168393.172,0.000,65.918,143.555,23.926,-19.043
1711168393.176,0.000,72.266,137.207,21.973,-29.785
1711168393.180,0.000,70.801,127.930,17.090,90.820
1711168393.184,0.000,56.641,130.371,34.668,81.543
1711168393.188,0.000,37.598,134.766,47.363,11.230
1711168393.192,0.000,36.621,142.578,57.129,24.902
1711168393.196,0.000,38.086,149.414,53.223,41.992
1711168393.200,0.000,39.551,148.438,33.203,35.156
1711168393.204,-53.223,48.340,157.227,27.344,-50.293
1711168393.208,-69.336,54.199,159.180,9.766,-87.402
1711168393.212,-59.570,56.641,144.043,-17.090,-35.645
1711168393.215,-20.996,51.270,136.230,-40.039,8.301
1711168393.219,-45.410,43.457,138.672,-55.664,-3.418
1711168393.223,-145.508,33.203,128.906,-82.031,52.246
1711168393.227,-184.082,29.785,111.816,-118.652,63.965
1711168393.231,-106.934,31.738,106.934,-152.832,22.461
1711168393.235,-27.344,37.598,95.703,-186.035,50.293
1711168393.239,-169.434,34.180,84.961,-211.914,10.254
1711168393.243,-408.203,19.531,83.008,-216.797,19.043
1711168393.247,-433.594,20.020,67.871,-234.375,48.340
1711168393.251,0.000,28.809,48.828,-268.555,13.672
1711168393.254,0.000,27.832,43.945,-272.461,18.555
1711168393.258,0.000,24.902,32.715,-264.648,3.418
1711168393.262,0.000,24.414,33.691,-233.398,-24.414
1711168393.266,0.000,31.738,51.270,-208.008,38.574
1711168393.270,0.000,41.992,62.012,-184.570,111.328
1711168393.274,0.000,45.410,98.145,-129.395,70.312
1711168393.278,0.000,52.246,130.371,-106.934,24.902
1711168393.282,0.000,60.547,120.117,-161.621,11.719
1711168393.286,0.000,68.848,107.910,-236.328,22.949
1711168393.290,0.000,63.477,102.051,-237.793,38.574
1711168393.294,0.000,50.781,84.473,-199.219,39.062
1711168393.297,-316.895,60.547,65.918,-165.039,14.160
1711168393.301,-199.219,74.707,51.270,-155.762,10.742
1711168393.305,-188.477,73.730,28.320,-151.855,0.488
1711168393.309,-270.020,62.012,10.254,-101.562,28.809
1711168393.313,-307.617,49.805,12.207,-41.016,59.082
1711168393.317,-229.980,49.805,-2.930,-37.109,36.133
1711168393.321,-187.012,54.688,-30.273,-31.738,-15.625
1711168393.325,-244.141,60.547,-47.363,-12.695,-44.434
1711168393.329,-260.254,70.312,-65.430,17.578,-56.641
1711168393.333,-208.008,82.520,-77.637,46.875,-50.781
1711168393.336,-191.406,105.469,-77.637,51.270,3.418
1711168393.340,-236.816,123.047,-78.613,71.289,39.551
1711168393.344,-273.438,129.395,-84.961,91.309,53.711
1711168393.348,-217.285,125.977,-108.887,95.703,49.805
1711168393.352,-167.480,112.793,-139.160,110.840,14.160
1711168393.356,-218.262,116.211,-147.949,105.469,24.902
1711168393.360,-286.133,120.605,-160.156,83.008,89.355
1711168393.364,-272.949,116.699,-167.480,89.355,125.000
1711168393.368,-226.562,114.258,-156.738,104.980,37.598
1711168393.372,-278.320,102.051,-148.438,90.332,12.207
1711168393.376,-364.258,89.355,-112.793,80.078,10.254
1711168393.379,-361.816,86.914,-60.547,72.266,30.273
1711168393.383,-326.172,83.496,-24.902,61.035,63.965
1711168393.387,-356.934,80.566,2.930,62.012,41.016
1711168393.391,-431.152,76.660,64.941,61.035,45.898
1711168393.395,-437.988,73.242,161.621,65.430,48.340
1711168393.399,-365.723,72.266,217.773,53.223,23.926
1711168393.403,-396.484,64.453,242.188,46.387,29.785
1711168393.407,-534.180,52.246,251.465,53.711,26.367
1711168393.411,-597.168,49.805,253.418,34.180,-18.066
1711168393.415,-555.664,53.223,266.113,12.207,-8.789
1711168393.419,-521.484,60.547,260.742,8.301,-5.371
1711168393.422,-584.961,72.266,166.016,13.672,38.086
1711168393.426,-656.250,84.473,364.746,-15.137,39.062
1711168393.430,-637.207,84.961,744.141,-40.527,-16.602
1711168393.434,-592.773,81.055,901.855,-17.578,19.043
1711168393.438,-587.402,77.148,994.629,-17.090,57.617
1711168393.442,-606.445,66.895,995.605,-26.855,30.273
1711168393.446,-570.312,71.777,937.500,-69.824,30.762
1711168393.450,-448.730,84.961,881.836,-168.457,55.176
1711168393.454,-406.250,79.590,817.383,-200.684,90.332
1711168393.458,-468.262,62.012,689.941,-180.176,27.344
1711168393.462,-467.773,56.152,604.492,-162.598,-25.391
1711168393.465,-385.742,43.457,507.324,-146.973,16.602
1711168393.469,-314.453,32.227,360.352,-133.789,45.410
1711168393.473,-376.953,18.066,276.367,-114.746,35.156
1711168393.477,-490.234,-15.137,216.797,-87.402,-1.953
1711168393.481,-447.754,-26.855,144.043,-86.914,-32.715
1711168393.485,0.000,-26.367,0.000,-78.613,9.277
1711168393.489,0.000,-27.344,0.000,-67.871,65.918
1711168393.493,0.000,-22.949,0.000,-66.895,137.207
1711168393.497,0.000,-22.949,0.000,-57.129,125.000
1711168393.501,0.000,-18.555,0.000,-38.086,20.996
1711168393.504,0.000,-7.812,0.000,-10.742,16.602
1711168393.508,0.000,-3.418,0.000,3.906,15.137
1711168393.512,0.000,-1.465,0.000,12.207,35.156
1711168393.516,0.000,-0.488,0.000,1.465,60.547
1711168393.520,0.000,0.488,0.000,-0.488,15.625
1711168393.524,0.000,2.930,0.000,19.531,45.898
1711168393.528,0.000,-3.418,0.000,17.578,61.523
1711168393.532,-354.004,-5.371,6.348,-5.371,52.734
1711168393.536,-345.215,6.836,-4.883,-20.508,21.973
1711168393.540,-357.422,15.625,4.883,-22.949,-4.883
1711168393.544,-300.293,11.230,22.461,-23.926,20.996
1711168393.547,-208.496,5.371,29.785,-19.043,15.625
1711168393.551,-177.246,3.906,33.203,-10.742,34.668
1711168393.555,-201.660,7.324,49.805,13.184,54.688
1711168393.559,-180.176,14.648,73.242,39.551,14.160
1711168393.563,-92.773,13.184,113.281,44.434,16.602
1711168393.567,-40.039,12.695,163.574,57.129,52.246
1711168393.571,-60.547,22.949,190.918,60.059,45.410
1711168393.575,-62.988,29.785,208.008,73.730,20.020
1711168393.579,-247.559,31.738,208.496,81.543,5.371
1711168393.583,-254.883,28.809,188.965,74.219,-15.137
1711168393.586,-264.160,31.250,179.199,94.238,21.973
1711168393.590,-326.660,45.410,176.758,115.723,33.203
1711168393.594,-355.957,51.758,173.340,107.910,15.137
1711168393.598,-279.785,52.734,164.551,71.289,17.578
1711168393.602,-197.266,57.129,164.062,65.430,28.809
1711168393.606,-172.363,64.453,166.504,90.332,-15.137
1711168393.610,-115.723,64.941,163.086,93.750,-2.930
1711168393.614,23.926,58.594,155.762,67.383,56.641
1711168393.618,195.312,62.500,141.602,34.668,52.246
1711168393.622,309.082,62.988,129.883,14.160,14.160
1711168393.626,382.812,67.383,102.051,9.277,-29.297
1711168393.629,449.219,63.477,52.246,18.066,0.000
1711168393.633,488.281,46.875,15.625,26.367,45.410
1711168393.637,461.426,37.598,2.441,39.062,71.777
1711168393.641,399.414,33.203,15.625,51.758,74.707
1711168393.645,431.641,36.133,16.113,27.832,86.426
1711168393.649,529.785,39.551,-20.508,-10.254,50.293
1711168393.653,580.078,44.434,-53.223,-28.809,20.996
1711168393.657,562.012,47.852,-51.758,-40.039,107.910
1711168393.661,558.105,43.945,-80.078,-30.273,114.746
1711168393.665,617.676,43.945,-137.695,-14.648,59.082
1711168393.668,655.273,48.828,-148.926,-30.273,48.828
1711168393.672,621.094,60.547,-145.508,-31.738,47.852
1711168393.676,580.078,58.105,-132.324,-19.043,76.172
1711168393.680,605.469,48.828,-147.461,-22.949,85.449
1711168393.684,672.363,57.617,-210.449,-3.418,-24.414
1711168393.688,690.430,67.383,-226.562,22.949,-76.660
1711168393.692,635.254,67.383,-264.160,23.926,-33.691
1711168393.696,567.871,68.848,-362.793,16.113,0.000
1711168393.700,548.828,65.918,-402.344,8.789,32.227
1711168393.704,509.277,62.012,-386.230,36.621,6.348
1711168393.708,415.527,71.777,-405.273,38.574,23.926
1711168393.711,390.137,85.449,-449.219,5.371,28.320
1711168393.715,459.961,88.379,-455.078,-12.207,-1.953
1711168393.719,497.559,81.543,-474.121,-24.902,16.113
1711168393.723,467.285,72.266,-513.672,-39.551,26.367
1711168393.727,422.852,63.477,-518.555,-67.871,52.734
1711168393.731,425.781,54.688,-493.164,-84.473,99.609
1711168393.735,422.363,67.383,-507.812,-92.285,92.773
1711168393.739,333.496,48.828,-634.766,-111.816,16.602
1711168393.743,225.098,5.859,-751.953,-125.488,-9.766
1711168393.747,180.664,7.812,-770.996,-160.645,-7.324
1711168393.751,168.945,20.020,-749.512,-184.570,0.488
1711168393.754,120.117,49.316,-755.371,-174.316,28.809
1711168393.758,40.039,58.594,-730.957,-180.664,21.484
1711168393.762,14.160,53.711,-696.777,-219.238,31.738
1711168393.766,25.391,66.895,-662.109,-236.328,6.836
1711168393.770,-31.250,71.289,-610.840,-222.656,-10.742
1711168393.774,-166.016,63.965,-578.613,-220.703,22.461
1711168393.778,-274.902,62.500,-542.969,-210.449,35.645
1711168393.782,-325.684,65.918,-572.266,-192.871,41.504
1711168393.786,-389.160,64.453,-620.605,-192.383,9.766
1711168393.790,-590.820,20.996,-609.863,-186.035,14.160
1711168393.794,-878.906,-3.418,-580.078,-183.594,55.664
1711168393.797,-976.562,-4.395,-544.922,-187.500,68.848
1711168393.801,-960.938,-16.113,-528.809,-184.082,72.266
1711168393.805,-968.750,-4.883,-510.742,-167.480,18.066
1711168393.809,-969.238,12.207,-476.562,-167.480,-3.906
1711168393.813,0.000,13.184,-458.496,-169.922,7.812
1711168393.817,0.000,12.207,-430.664,-147.461,-13.184
1711168393.821,0.000,33.203,-384.766,-139.160,33.691
1711168393.825,0.000,46.387,-349.121,-113.770,83.008
1711168393.829,0.000,43.457,-318.359,-72.266,6.348
1711168393.833,0.000,44.434,-266.602,-55.176,-51.758
1711168393.836,0.000,42.480,-224.609,-32.227,-38.574
1711168393.840,0.000,31.250,-207.520,4.395,-26.367
1711168393.844,0.000,25.879,-200.684,27.832,-24.414
1711168393.848,0.000,36.621,-199.219,59.570,-18.066
1711168393.852,0.000,46.875,-236.816,88.867,-30.762
1711168393.856,0.000,67.383,-280.273,104.980,-30.762
1711168393.860,-970.703,103.027,-279.297,107.422,14.648
1711168393.864,-960.938,133.301,-255.371,104.980,-11.230
1711168393.868,-847.656,90.820,-216.309,132.324,-18.555
1711168393.872,-782.715,35.156,-187.012,158.691,32.227
1711168393.876,-811.035,69.336,-169.434,158.691,83.496
1711168393.879,-786.621,110.840,-142.578,163.086,104.492
1711168393.883,-792.969,126.465,-108.887,187.500,69.824
1711168393.887,-920.410,130.371,-88.379,217.285,47.852
1711168393.891,-976.562,147.461,-69.336,242.188,6.348
1711168393.895,-963.867,155.762,-34.668,275.391,-4.883
1711168393.899,-968.750,152.832,-12.695,302.734,9.766
1711168393.903,-968.750,154.785,-0.488,308.594,59.082
1711168393.907,-968.750,149.902,16.113,311.035,11.719
1711168393.911,-968.750,135.254,26.855,321.777,-42.480
1711168393.915,-968.750,120.117,24.414,322.266,8.301
1711168393.919,-968.750,146.973,29.297,296.875,18.066
1711168393.922,-968.750,108.398,42.480,282.227,52.246
1711168393.926,-968.750,-4.395,51.758,273.926,30.273
1711168393.930,-968.750,-20.996,52.734,262.207,1.465
1711168393.934,-968.750,0.000,57.617,264.648,66.895
1711168393.938,-968.750,4.395,62.988,264.648,84.473
1711168393.942,-968.750,24.414,59.570,245.117,23.926
1711168393.946,-968.750,29.297,45.410,216.797,-34.180
1711168393.950,-968.750,-17.090,25.879,192.871,21.484
1711168393.954,-968.750,-33.691,0.000,180.664,39.551
1711168393.958,-968.750,-20.508,0.000,178.223,31.738
1711168393.961,-968.750,-20.996,0.000,151.855,80.078
1711168393.965,-968.750,0.488,0.000,132.324,74.707
1711168393.969,-968.750,38.574,0.000,106.934,11.719
1711168393.973,-968.750,63.477,0.000,66.895,41.504
1711168393.977,-968.750,84.473,0.000,18.066,110.352
1711168393.981,-968.750,105.957,0.000,-51.270,32.715
1711168393.985,-968.750,128.418,0.000,-101.074,-30.273
1711168393.989,-968.750,146.973,0.000,-121.094,20.020
1711168393.993,-968.750,150.391,0.000,-160.156,49.805
1711168393.997,-968.750,150.391,0.000,-202.637,25.391
1711168394.001,0.000,165.527,52.734,-227.051,1.953
1711168394.004,0.000,170.898,50.781,-228.516,-4.883
1711168394.008,0.000,154.785,55.664,-196.777,6.348
1711168394.012,0.000,124.023,66.406,-165.039,-8.301
1711168394.016,0.000,114.746,75.684,-125.000,6.348
1711168394.020,0.000,45.898,85.449,-76.660,-16.602
1711168394.024,0.000,-222.656,92.285,-41.992,-39.551
1711168394.028,0.000,-466.309,101.074,-2.441,27.344
1711168394.032,0.000,-521.973,104.492,34.180,18.066
1711168394.036,0.000,-518.066,111.816,24.902,3.906
1711168394.040,0.000,-486.328,106.934,9.766,31.738
1711168394.043,0.000,-430.176,100.586,32.227,77.148
1711168394.047,-968.750,-388.184,99.609,60.059,48.340
1711168394.051,-968.750,-375.977,96.680,68.848,15.137
1711168394.055,-968.750,-365.723,95.703,78.125,59.082
1711168394.059,-968.750,-339.844,104.004,113.281,71.777
1711168394.063,-968.750,-309.082,120.605,149.902,98.633
1711168394.067,-968.750,-284.668,125.977,158.691,63.965
1711168394.071,-968.750,-281.738,124.023,149.902,16.113
1711168394.075,-968.750,-264.160,120.117,153.320,35.645
1711168394.079,-968.750,-240.234,125.977,157.715,63.477
1711168394.083,-968.750,-208.496,144.531,153.809,81.543
1711168394.086,-968.750,-177.734,152.344,163.574,24.414
1711168394.090,-968.750,-167.480,146.484,176.270,62.988
1711168394.094,0.000,-133.301,0.000,174.316,67.383
1711168394.098,0.000,-146.484,0.000,169.922,84.473
1711168394.102,0.000,-202.637,0.000,165.039,69.336
1711168394.106,0.000,-211.914,0.000,155.273,-12.695
1711168394.110,0.000,-195.312,0.000,161.133,17.090
1711168394.114,0.000,-167.480,0.000,156.738,31.738
1711168394.118,0.000,-158.691,0.000,143.066,13.184
1711168394.122,0.000,-173.340,0.000,135.742,-14.648
1711168394.126,0.000,-174.805,0.000,127.930,35.645
1711168394.129,0.000,-155.273,0.000,132.324,76.660
1711168394.133,0.000,-149.902,0.000,139.648,30.762
1711168394.137,0.000,-151.367,0.000,134.277,74.707
1711168394.141,-966.797,-132.812,139.648,128.418,94.727
1711168394.145,-955.566,-107.910,134.277,140.625,34.180
1711168394.149,-978.516,-88.867,139.160,151.367,85.449
1711168394.153,-718.750,-79.102,133.789,144.531,84.473
1711168394.157,-156.738,-70.312,123.047,140.137,34.180
1711168394.161,512.207,-67.871,124.023,140.137,67.871
1711168394.165,977.539,-74.707,128.418,130.371,28.320
1711168394.169,994.629,-76.660,120.117,123.047,-28.320
1711168394.172,989.258,-59.082,105.469,124.023,0.488
1711168394.176,-998.047,-33.203,99.609,104.492,44.434
1711168394.180,999.512,-17.090,95.703,76.660,43.945
1711168394.184,999.512,-7.812,89.355,72.266,40.527
1711168394.188,999.512,8.301,83.496,66.895,11.719
1711168394.192,999.512,31.738,84.473,56.152,-10.254
1711168394.196,999.512,46.387,83.984,62.500,31.250
1711168394.200,999.512,54.688,85.449,73.730,47.363
1711168394.204,999.512,65.430,88.867,63.477,21.973
1711168394.208,999.512,69.336,83.984,42.480,57.129
1711168394.212,999.512,65.918,71.777,33.691,80.566
1711168394.215,999.512,68.359,80.078,36.133,71.289
1711168394.219,999.512,69.824,96.680,43.945,59.082
1711168394.223,999.512,66.895,92.773,35.156,44.434
1711168394.227,999.512,72.266,91.309,22.461,47.363
1711168394.231,999.512,75.684,84.473,28.809,57.617
1711168394.235,999.512,72.754,82.520,34.668,40.527
1711168394.239,999.512,70.801,91.797,49.805,45.898
1711168394.243,999.512,67.871,89.355,52.246,43.945
1711168394.247,999.512,68.359,76.660,39.062,2.441
1711168394.251,999.512,75.684,57.129,17.090,25.879
1711168394.254,999.512,83.008,51.758,-18.066,54.688
1711168394.258,999.512,86.426,61.035,-13.672,60.547
1711168394.262,999.512,86.914,63.965,13.184,80.078
1711168394.266,999.512,90.332,57.617,25.391,47.363
1711168394.270,999.512,89.355,49.316,13.672,-1.953
1711168394.274,999.512,89.355,48.340,7.324,-9.766
1711168394.278,999.512,98.145,59.082,24.902,57.617
1711168394.282,0.000,105.957,0.000,30.762,53.223
1711168394.286,0.000,114.258,0.000,21.484,0.000
1711168394.290,0.000,106.445,0.000,20.020,14.160
1711168394.294,0.000,97.656,0.000,23.438,3.418
1711168394.297,0.000,90.820,0.000,41.504,-4.395
1711168394.301,0.000,83.984,0.000,46.387,32.227
1711168394.305,0.000,96.191,0.000,21.484,97.168
1711168394.309,0.000,100.586,0.000,17.578,99.121
1711168394.313,0.000,98.145,0.000,25.391,34.180
1711168394.317,0.000,108.887,0.000,10.742,92.285
1711168394.321,0.000,111.816,0.000,-15.137,90.820
1711168394.325,0.000,133.789,0.000,-32.715,16.113
1711168394.329,999.512,169.922,54.199,-64.453,-12.695
1711168394.333,999.512,170.898,52.734,-85.938,43.945
1711168394.337,999.512,161.133,42.969,-78.125,67.871
1711168394.340,999.512,159.668,23.926,-84.961,13.672
1711168394.344,999.512,168.945,4.883,-92.773,58.105
1711168394.348,999.512,176.270,-3.418,-92.773,106.445
1711168394.352,999.512,180.664,0.488,-92.773,47.363
1711168394.356,999.512,176.270,9.766,-83.984,14.160
1711168394.360,999.512,162.598,26.367,-46.387,61.523
1711168394.364,999.512,161.621,28.809,-29.785,61.035
1711168394.368,999.512,178.711,22.461,-29.785,31.738
1711168394.372,999.512,192.383,13.184,-7.812,30.762
1711168394.376,999.512,185.059,-0.488,1.465,7.324
1711168394.379,999.512,171.387,-6.836,-4.395,1.465
1711168394.383,999.512,178.711,-1.465,-12.207,14.160
1711168394.387,999.512,187.500,-9.766,-5.371,3.906
1711168394.391,999.512,176.758,-40.527,-22.461,101.562
1711168394.395,999.512,166.992,-45.898,-38.574,110.840
1711168394.399,999.512,167.480,-24.902,-14.648,67.871
1711168394.403,999.512,158.691,-24.902,-12.695,48.340
1711168394.407,999.512,161.621,-30.273,-9.766,-9.277
1711168394.411,999.512,181.641,-23.438,-5.371,48.340
1711168394.415,999.512,191.895,-24.902,-28.320,82.031
1711168394.419,999.512,184.570,-33.203,-48.828,49.805
1711168394.422,999.512,165.527,-63.965,-70.801,69.336
1711168394.426,999.512,153.809,-75.684,-72.266,75.684
1711168394.430,999.512,164.062,-83.008,-61.523,56.152
1711168394.434,999.512,170.410,-129.883,-67.383,39.062
1711168394.438,999.512,161.621,-188.477,-77.148,47.363
1711168394.442,999.512,179.688,-237.305,-80.566,58.594
1711168394.446,999.512,168.945,-236.816,-108.398,51.758
1711168394.450,999.512,100.098,-261.719,-120.605,86.426
1711168394.454,999.512,57.617,-343.262,-108.398,68.848
1711168394.458,999.512,49.805,-425.293,-105.469,6.836
1711168394.461,999.512,59.570,-445.312,-111.816,26.367
1711168394.465,999.512,62.988,-452.148,-113.281,79.102
1711168394.469,0.000,62.012,0.000,-99.121,44.434
1711168394.473,0.000,65.918,0.000,-91.309,-23.438
1711168394.477,0.000,79.102,0.000,-72.266,0.000
1711168394.481,0.000,79.102,0.000,-57.129,62.988
1711168394.485,0.000,70.801,0.000,-63.477,60.547
1711168394.489,0.000,72.754,0.000,-66.895,-23.926
1711168394.493,0.000,86.914,0.000,-60.059,-47.852
1711168394.497,0.000,91.797,0.000,-65.918,14.648
1711168394.501,0.000,29.785,0.000,-76.660,30.762
1711168394.504,0.000,-17.578,0.000,-75.195,17.090
1711168394.508,0.000,-10.742,0.000,-75.195,52.734
1711168394.512,0.000,3.418,0.000,-97.168,95.215
1711168394.516,999.512,32.227,-465.332,-112.305,71.289
1711168394.520,999.512,35.156,-458.984,-115.234,25.879
1711168394.524,999.512,19.043,-448.730,-121.582,39.551
1711168394.528,999.512,31.738,-444.824,-125.977,32.715
1711168394.532,999.512,36.621,-446.289,-149.902,42.969
1711168394.536,999.512,33.203,-428.223,-187.988,74.219
1711168394.540,999.512,38.086,-399.902,-199.219,120.117
1711168394.543,999.512,38.574,-377.441,-173.340,170.410
1711168394.547,999.512,49.316,-357.422,-162.109,90.332
1711168394.551,999.512,60.547,-346.191,-156.250,58.594
1711168394.555,999.512,66.895,-328.125,-150.879,123.535
1711168394.559,999.512,85.938,-330.078,-130.859,164.062
1711168394.563,999.512,92.285,-269.531,-126.953,173.340
1711168394.567,999.512,84.961,-224.121,-145.508,144.043
1711168394.571,999.512,79.590,-208.984,-158.691,166.016
1711168394.575,999.512,78.125,-190.918,-166.992,228.027
1711168394.579,999.512,93.262,-153.809,-186.035,257.324
1711168394.583,999.512,107.910,-147.461,-210.938,260.254
1711168394.586,999.512,107.422,-141.602,-221.191,273.926
1711168394.590,999.512,98.145,-155.273,-238.770,274.902
1711168394.594,999.512,90.820,-211.426,-254.395,279.785
1711168394.598,999.512,84.961,-224.121,-256.836,314.453
1711168394.602,999.512,97.168,-199.707,-260.742,341.797
1711168394.606,999.512,113.770,-185.059,-279.297,382.812
1711168394.610,-1000.000,118.652,-217.773,-287.109,435.059
1711168394.614,995.605,115.723,-258.301,-283.691,431.641
1711168394.618,-996.582,104.492,-267.578,-287.598,398.438
1711168394.622,975.586,88.867,-269.043,-276.367,450.195
1711168394.626,869.141,84.961,-262.207,-258.301,488.770
1711168394.629,815.430,94.238,-264.648,-254.883,487.793
1711168394.633,818.848,71.777,-277.832,-270.996,494.141
1711168394.637,747.070,39.062,-279.297,-276.855,475.098
1711168394.641,611.328,26.367,-285.156,-293.945,520.508
1711168394.645,542.480,10.254,-279.785,-312.988,594.238
1711168394.649,567.383,1.953,-265.625,-270.996,600.586
1711168394.653,553.223,-6.836,-263.672,-246.582,575.684
1711168394.657,437.988,-19.531,-251.465,-250.000,609.375
1711168394.661,346.191,-18.555,-239.746,-229.492,663.574
1711168394.665,355.469,-29.785,-245.117,-221.191,659.668
1711168394.669,390.137,-40.527,-244.141,-217.773,651.367
1711168394.672,364.258,-10.742,-211.426,-211.426,693.848
1711168394.676,294.922,-0.488,-189.453,-203.125,734.863
1711168394.680,265.625,-14.648,-190.430,-187.500,750.488
1711168394.684,286.621,-15.625,-175.293,-181.641,734.863
1711168394.688,243.652,-1.465,-165.039,-167.480,764.160
1711168394.692,140.625,9.277,-160.645,-130.371,841.797
1711168394.696,113.281,7.324,-146.973,-104.980,842.285
1711168394.700,165.527,0.000,-124.512,-89.844,806.152
1711168394.704,0.000,1.953,0.000,-84.961,848.145
1711168394.708,0.000,6.836,0.000,-68.359,893.066
1711168394.711,0.000,0.000,0.000,-33.691,888.672
1711168394.715,0.000,-19.531,0.000,-40.527,891.602
1711168394.719,0.000,-56.641,0.000,-68.359,893.066
1711168394.723,0.000,-75.195,0.000,-69.336,907.227
1711168394.727,0.000,-67.383,0.000,-42.480,946.777
1711168394.731,0.000,-57.129,0.000,-8.789,969.238
1711168394.735,0.000,-67.383,0.000,-13.672,964.844
1711168394.739,0.000,-84.961,0.000,-21.484,945.801
1711168394.743,0.000,-66.406,0.000,9.277,961.914
1711168394.747,0.000,-33.691,0.000,18.555,984.863
1711168394.751,354.492,-12.207,-88.867,11.230,984.863
1711168394.754,373.047,-2.930,-79.590,6.348,986.328
1711168394.758,304.688,5.859,-76.660,-25.391,999.512
1711168394.762,309.082,18.555,-66.895,-51.758,999.023
1711168394.766,396.973,14.648,-54.688,-71.289,999.512
1711168394.770,425.293,1.953,-50.781,-96.680,998.535
1711168394.774,374.023,-5.859,-56.641,-107.422,993.164
1711168394.778,355.957,-3.418,-53.711,-98.145,997.559
1711168394.782,434.082,4.395,-46.387,-99.609,-1000.000
1711168394.786,509.766,5.371,-39.551,-113.770,999.023
1711168394.790,481.445,3.906,-58.594,-107.910,999.512
1711168394.793,392.578,2.441,-73.242,-85.449,999.512
1711168394.797,397.461,4.395,-41.504,-63.965,999.512
1711168394.801,466.797,9.766,-24.902,-39.551,999.512
1711168394.805,459.961,7.324,-19.043,-18.555,999.512
1711168394.809,406.250,7.324,-6.836,-6.348,999.512
1711168394.813,429.199,19.531,9.766,23.438,999.512
1711168394.817,530.762,24.414,26.855,60.059,999.512
1711168394.821,546.875,21.484,24.414,78.613,999.512
1711168394.825,470.703,2.441,14.160,60.059,999.512
1711168394.829,458.984,-26.855,12.207,8.789,999.512
1711168394.833,518.066,-27.832,16.602,13.672,999.512
1711168394.836,527.344,-20.996,13.672,6.836,999.512
1711168394.840,459.961,-23.438,5.371,-47.852,999.512
1711168394.844,416.016,-21.484,8.301,-68.359,999.512
1711168394.848,434.082,-37.109,16.602,-79.590,999.512
1711168394.852,473.145,-44.922,16.113,-78.125,999.512
1711168394.856,425.293,-36.133,16.602,-60.059,999.512
1711168394.860,338.379,-33.203,21.973,-47.363,999.512
1711168394.864,348.633,-23.438,28.809,-6.836,999.512
1711168394.868,313.477,-25.879,48.828,32.715,999.512
1711168394.872,139.160,-37.598,63.965,24.902,999.512
1711168394.876,-153.320,-38.574,67.871,10.742,999.512
1711168394.879,-420.898,-42.480,74.707,8.301,999.512
1711168394.883,-636.230,-54.688,74.707,0.488,999.512
1711168394.887,-884.277,-71.777,64.453,-20.996,999.512
1711168394.891,-976.074,-71.777,61.035,-48.828,999.023
1711168394.895,-961.914,-62.012,65.430,-60.059,-1000.000
1711168394.899,-968.750,-71.777,66.895,-64.941,996.094
1711168394.903,-969.238,-79.102,66.895,-61.035,997.559
1711168394.907,-968.750,-76.172,62.988,-56.152,977.539
1711168394.911,-968.750,-72.266,60.059,-58.594,961.914
1711168394.915,-968.750,-64.453,63.965,-79.102,923.828
1711168394.919,-968.750,-67.871,67.871,-125.977,822.266
1711168394.922,-968.750,-63.965,82.520,-136.230,745.605
1711168394.926,-968.750,-44.434,93.262,-120.117,709.961
1711168394.930,-968.750,-34.668,97.656,-101.074,725.586
1711168394.934,-968.750,-38.574,104.980,-75.195,685.059
1711168394.938,0.000,-56.641,106.934,-69.824,615.723
1711168394.942,0.000,-53.223,101.074,-71.777,604.980
1711168394.946,0.000,-43.945,99.609,-74.219,594.238
1711168394.950,0.000,-50.781,97.168,-80.078,522.461
1711168394.954,0.000,-55.664,93.262,-86.914,442.383
1711168394.958,0.000,-58.105,91.309,-75.195,430.176
1711168394.961,0.000,-50.293,95.215,-60.059,426.758
1711168394.965,0.000,-38.086,104.004,-47.852,383.301
1711168394.969,0.000,-29.297,104.004,-36.621,327.637
1711168394.973,0.000,-27.344,97.656,-46.387,311.523
1711168394.977,0.000,-29.297,99.609,-60.059,302.734
1711168394.981,0.000,-26.855,96.191,-84.961,291.504
1711168394.985,-968.750,-41.016,81.055,-129.395,257.324
1711168394.989,-968.750,-78.613,69.824,-207.031,227.539
1711168394.993,-969.238,-106.445,59.082,-317.383,202.637
1711168394.997,-963.867,-112.793,52.246,-424.805,162.109
1711168395.001,-970.703,-104.004,58.105,-510.254,95.703
1711168395.004,-933.105,-92.773,62.012,-589.844,-20.996
1711168395.008,-755.371,-85.938,53.711,-682.617,-67.871
1711168395.012,-501.465,-94.727,53.223,-726.074,-143.066
1711168395.016,-296.875,-106.445,66.406,-746.094,-294.434
1711168395.020,-207.520,-89.844,62.012,-800.781,-352.539
1711168395.024,-143.555,-78.613,40.527,-840.820,-382.812
1711168395.028,14.160,-81.543,34.180,-836.426,-474.609
1711168395.032,999.512,-78.125,31.738,-809.082,-549.805
1711168395.036,999.512,-72.754,31.738,-773.438,-600.586
1711168395.040,999.512,-70.312,36.133,-711.426,-619.629
1711168395.043,999.512,-69.824,42.480,-652.832,-633.301
1711168395.047,999.512,-70.801,47.852,-602.539,-667.480
1711168395.051,999.512,-78.613,37.109,-562.012,-716.309
1711168395.055,999.512,-73.730,34.180,-511.719,-754.395
1711168395.059,999.512,-73.730,42.480,-459.961,-765.625
1711168395.063,999.512,-75.684,46.387,-416.504,-765.137
1711168395.067,999.512,-66.406,46.875,-372.559,-801.758
1711168395.071,999.512,-58.105,60.059,-341.309,-845.215
1711168395.075,999.512,-58.105,68.848,-326.172,-822.754
1711168395.079,999.512,-64.941,63.965,-321.289,-812.500
1711168395.083,999.512,-59.570,63.965,-312.012,-869.629
1711168395.086,999.512,-51.758,58.105,-286.621,-906.250
1711168395.090,999.023,-54.688,47.852,-265.625,-898.438
1711168395.094,999.023,-63.965,35.156,-257.324,-922.363
1711168395.098,987.793,-68.848,37.109,-208.008,-965.820
1711168395.102,958.984,-59.082,49.316,-185.059,-968.750
1711168395.106,855.469,-45.898,51.758,-204.590,-970.215
1711168395.110,658.203,-26.367,59.082,-211.426,-957.031
1711168395.114,508.301,-30.762,59.082,-195.312,-953.613
1711168395.118,413.086,-56.152,49.316,-194.824,-970.703
1711168395.122,229.492,-42.969,57.129,-192.383,-968.750
1711168395.126,-30.273,-13.184,67.383,-157.227,-968.750
1711168395.129,-252.930,-15.137,62.500,-141.602,-968.750
1711168395.133,-390.625,-33.203,53.711,-121.094,-968.750
1711168395.137,-546.875,-19.531,53.711,-106.934,-968.750
1711168395.141,-810.059,-5.859,58.105,-110.352,-968.750
1711168395.145,-970.215,-12.695,51.270,-85.449,-968.750
1711168395.149,-964.844,-40.039,31.738,-41.016,-968.750
1711168395.153,-965.820,-57.617,25.391,-10.254,-968.750
1711168395.157,-969.727,-41.992,29.297,30.273,-968.750
1711168395.161,-968.750,-27.832,30.273,66.406,-968.750
1711168395.165,-968.750,-0.488,30.273,14.160,-968.750
1711168395.168,-968.750,22.949,49.316,-46.875,-968.750
1711168395.172,-968.750,14.160,67.871,-30.762,-968.750
1711168395.176,-968.750,4.395,61.523,-12.695,-968.750
1711168395.180,-968.750,-0.977,47.363,-15.137,-968.750
1711168395.184,-968.750,-20.020,33.691,-9.766,-968.750
1711168395.188,-968.750,-23.926,21.973,-36.133,-968.750
1711168395.192,-968.750,-26.855,16.113,-72.266,-968.750
1711168395.196,-968.750,-41.992,7.324,-66.406,-968.750
1711168395.200,-968.750,-53.711,0.488,-43.457,-968.750
1711168395.204,-968.750,-60.547,0.000,-37.598,-968.750
1711168395.208,-968.750,-52.246,-2.930,-32.715,-968.750
1711168395.211,-968.750,-53.711,-3.418,1.465,-968.750
1711168395.215,-968.750,-61.523,4.883,26.855,-968.750
1711168395.219,-968.750,-71.289,4.883,19.531,-968.750
1711168395.223,-968.750,-80.566,-11.719,14.160,-968.750
1711168395.227,-968.750,-90.820,-27.344,4.883,-968.750
1711168395.231,-968.750,-93.750,-30.273,-15.137,-968.750
1711168395.235,-968.750,-85.449,-36.133,-13.672,-968.750
1711168395.239,-968.750,-83.984,-49.316,-9.277,-968.750
1711168395.243,-968.750,-91.797,-54.688,-17.578,-968.750
1711168395.247,-968.750,-102.539,-60.059,-24.902,-968.750
1711168395.250,-968.750,-99.121,-59.082,-22.949,-968.750
1711168395.254,-968.750,-67.871,-29.297,-18.066,-968.750
1711168395.258,-968.750,-51.758,-16.602,-30.762,-968.750
1711168395.262,-968.750,-82.031,-43.945,-48.340,-968.750
1711168395.266,-968.750,-104.492,-58.594,-61.035,-969.238
1711168395.270,-968.750,-86.426,-54.688,-59.570,-966.797
1711168395.274,-968.750,-81.543,-50.293,-54.688,-967.773
1711168395.278,-968.750,-114.746,-83.984,-83.496,-959.961
1711168395.282,-968.750,-135.254,-124.023,-100.586,-854.004
1711168395.286,-968.750,-145.020,-133.789,-106.934,-741.211
1711168395.290,-968.750,-160.156,-141.602,-117.188,-674.805
1711168395.293,-968.750,-185.059,-166.504,-127.441,-702.637
1711168395.297,-968.750,-177.246,-167.480,-123.047,-675.781
1711168395.301,-968.750,-157.715,-156.250,-122.070,-578.125
1711168395.305,-968.750,-174.805,-168.945,-130.371,-585.449
1711168395.309,-968.750,-177.734,-177.246,-127.930,-588.379
1711168395.313,0.000,-149.902,-160.645,-131.348,-524.902
1711168395.317,0.000,-112.305,-119.141,-90.332,-458.984
1711168395.321,0.000,-105.957,-104.980,-55.664,-448.242
1711168395.325,0.000,-101.562,-112.305,-45.410,-415.527
1711168395.329,0.000,-94.238,-123.047,-56.152,-378.906
1711168395.333,0.000,-119.141,-166.992,-109.375,-398.438
1711168395.336,0.000,-166.992,-231.445,-168.457,-389.160
1711168395.340,0.000,-203.125,-274.902,-191.406,-315.918
1711168395.344,0.000,-219.238,-280.762,-187.988,-287.598
1711168395.348,0.000,-236.816,-288.086,-200.195,-240.723
1711168395.352,0.000,-246.094,-303.711,-227.539,-222.168
1711168395.356,0.000,-237.793,-296.387,-239.258,-250.488
1711168395.360,-944.824,-237.305,0.000,-238.281,-226.074
1711168395.364,-820.312,-270.996,0.000,-276.367,-168.457
1711168395.368,-648.438,-304.199,0.000,-313.477,-161.133
1711168395.372,-554.688,-311.523,0.000,-326.660,-202.637
1711168395.376,-567.383,-337.891,0.000,-347.656,-191.406
1711168395.379,-512.207,-345.703,0.000,-347.656,-174.316
1711168395.383,-373.047,-318.848,0.000,-333.008,-143.555
1711168395.387,-320.801,-296.875,0.000,-326.660,-147.949
1711168395.391,-373.047,-292.969,0.000,-328.613,-137.207
1711168395.395,-395.996,-282.715,0.000,-320.312,-136.719
1711168395.399,-302.246,-248.047,0.000,-270.996,-112.793
1711168395.403,-220.215,-211.426,0.000,-217.773,-93.750
1711168395.407,-270.996,-205.566,-283.203,-197.266,-110.352
1711168395.411,-352.539,-234.863,-314.453,-236.328,-130.859
1711168395.415,-310.059,-257.324,-347.168,-268.555,-116.699
1711168395.418,-234.863,-277.832,-359.375,-282.227,-90.332
1711168395.422,-272.949,-276.855,-358.887,-283.691,-119.141
1711168395.426,-342.773,-244.629,-344.238,-246.094,-108.398
1711168395.430,-317.383,-251.953,-349.121,-268.555,-107.910
1711168395.434,-211.426,-269.043,-349.121,-287.598,-116.211
1711168395.438,-178.223,-268.555,-351.074,-297.363,-25.879
1711168395.442,-203.125,-273.438,-361.816,-327.637,-9.766
1711168395.446,-151.855,-279.297,-360.352,-330.078,-93.750
1711168395.450,1.465,-275.391,-338.379,-314.453,-43.945
1711168395.454,97.168,-277.344,-324.219,-285.156,-42.969
1711168395.458,60.547,-270.996,-313.965,-269.531,-55.664
1711168395.461,86.914,-212.402,-260.254,-234.863,-24.902
1711168395.465,214.844,-166.992,-217.285,-191.895,8.301
1711168395.469,303.711,-160.645,-202.637,-169.922,2.441
1711168395.473,292.969,-149.902,-183.105,-138.184,-7.812
1711168395.477,289.062,-137.695,-167.969,-118.164,8.301
1711168395.481,412.598,-128.418,-154.297,-105.469,-62.988
1711168395.485,568.359,-115.723,-129.883,-95.215,-62.012
1711168395.489,584.473,-94.238,-106.445,-103.027,-29.785
1711168395.493,491.211,-97.656,-127.930,-130.371,-10.742
1711168395.497,498.047,-133.789,-165.039,-160.156,-6.348
1711168395.501,612.305,-163.574,-180.664,-169.434,-45.410
1711168395.504,668.457,-164.551,-184.570,-181.152,-84.961
1711168395.508,669.922,-153.809,-177.734,-170.898,13.184
1711168395.512,745.117,-161.133,-157.715,-139.648,69.824
1711168395.516,894.043,-157.227,-139.160,-132.324,-46.387
1711168395.520,994.141,-122.559,-118.164,-124.023,-60.547
1711168395.524,981.445,-125.488,-116.211,-119.629,-32.715
1711168395.528,958.008,-153.809,-126.953,-132.812,-33.691
1711168395.532,992.188,-138.672,-117.188,-135.254,-9.277
1711168395.536,-998.047,-113.770,-104.980,-118.652,39.551
1711168395.540,997.559,-92.773,-91.797,-92.285,9.277
1711168395.543,999.512,-77.148,-62.988,-62.988,-20.020
1711168395.547,999.512,-65.918,-45.410,-37.598,-14.648
1711168395.551,998.535,-66.406,-51.270,-20.508,-10.742
1711168395.555,-1000.000,-67.383,-42.969,-17.578,-29.297
1711168395.559,998.535,-56.152,-41.016,-1.953,-14.648
1711168395.563,977.051,-48.340,-73.242,6.836,-28.809
1711168395.567,980.957,-46.875,-97.168,-38.574,-2.441
1711168395.571,946.777,-58.594,-110.840,-78.125,62.012
1711168395.575,821.289,-64.941,-116.211,-63.477,41.504
1711168395.579,766.602,-76.660,-124.023,-64.941,-14.160
1711168395.583,809.570,-88.867,-134.277,-74.219,-7.812
1711168395.586,797.852,-94.727,-139.160,-87.402,78.613
1711168395.590,698.730,-104.004,-137.207,-101.074,42.480
1711168395.594,627.930,-102.051,0.000,-92.285,50.781
1711168395.598,670.410,-90.332,0.000,-86.426,48.828
1711168395.602,717.773,-97.656,0.000,-82.520,5.371
1711168395.606,664.062,-117.188,0.000,-76.660,36.621
1711168395.610,584.961,-128.418,0.000,-74.219,33.203
1711168395.614,591.309,-130.859,0.000,-78.125,27.832
1711168395.618,647.949,-118.164,0.000,-70.312,23.438
1711168395.622,621.582,-116.699,0.000,-68.359,33.203
1711168395.626,541.992,-102.539,0.000,-40.039,39.062
1711168395.629,564.453,-52.246,0.000,23.926,14.648
1711168395.633,656.738,-29.785,0.000,30.762,22.461
1711168395.637,675.293,-27.832,0.000,10.742,38.086
1711168395.641,0.000,-15.625,-124.023,6.348,21.973
1711168395.645,0.000,-22.461,-105.957,5.371,47.363
1711168395.649,0.000,-37.598,-100.098,10.742,36.621
1711168395.653,0.000,-37.109,-100.098,14.160,-2.441
1711168395.657,0.000,-39.551,-99.609,5.859,18.066
1711168395.661,0.000,-48.340,-105.957,-24.414,6.836
1711168395.665,0.000,-45.410,-107.910,-45.410,12.695
1711168395.668,0.000,-38.574,-107.422,-24.902,1.465
1711168395.672,0.000,-34.180,-82.520,18.066,-37.109
1711168395.676,0.000,-17.090,-30.762,52.734,19.043
1711168395.680,0.000,-6.348,-9.277,36.133,91.309
1711168395.684,0.000,-13.672,-4.883,3.418,49.316
1711168395.688,125.000,-15.137,5.371,5.859,3.418
1711168395.692,-18.555,-15.137,12.695,15.625,31.250
1711168395.696,-82.031,-20.996,16.602,25.879,16.113
1711168395.700,-59.082,-19.043,16.602,42.480,-6.348
1711168395.704,-87.402,-23.926,14.160,43.457,6.348
1711168395.708,-208.008,-22.949,18.066,47.852,59.570
1711168395.711,-284.668,-5.859,30.273,59.570,56.641
1711168395.715,-237.793,5.371,34.668,62.988,7.812
1711168395.719,-178.223,9.277,33.203,67.871,-10.742
1711168395.723,-208.984,8.301,37.109,73.730,-25.391
1711168395.727,-254.883,13.184,52.734,72.266,-30.762
1711168395.731,-174.805,26.855,72.266,85.938,-29.297
1711168395.735,-31.738,47.363,0.000,102.539,36.621
1711168395.739,2.441,55.664,0.000,107.910,30.762
1711168395.743,-23.438,67.383,0.000,123.535,22.461
1711168395.747,47.852,78.613,0.000,129.395,4.883
1711168395.750,181.641,72.754,0.000,135.254,-81.543
1711168395.754,230.957,73.730,0.000,126.953,-19.531
1711168395.758,193.848,68.359,0.000,108.398,66.406
1711168395.762,215.332,66.406,0.000,119.629,33.691
1711168395.766,328.613,70.312,0.000,116.699,20.508
1711168395.770,392.578,73.242,0.000,83.008,5.371
1711168395.774,332.520,74.707,0.000,73.730,22.461
1711168395.778,305.176,71.289,0.000,82.031,33.691
1711168395.782,375.000,67.383,92.773,76.172,11.719
1711168395.786,415.527,54.199,83.496,62.988,86.914
1711168395.790,340.332,42.969,75.195,54.199,72.754
1711168395.793,239.258,46.875,75.684,51.758,21.973
1711168395.797,217.773,46.387,74.219,56.152,42.969
1711168395.801,229.980,49.316,67.871,63.965,-12.207
1711168395.805,159.180,59.570,62.012,68.848,16.602
1711168395.809,30.273,58.594,63.477,72.754,40.039
1711168395.813,-20.508,53.711,63.965,70.312,19.043
1711168395.817,-9.766,48.828,52.734,75.195,61.523
1711168395.821,-56.641,35.645,46.387,71.289,31.738
1711168395.825,-185.059,25.879,39.551,38.574,24.902
1711168395.829,-238.770,19.043,0.000,5.371,87.891
1711168395.833,-218.750,4.395,0.000,-18.555,84.961
1711168395.836,-250.488,3.418,0.000,-17.578,57.129
1711168395.840,-357.910,12.695,0.000,-2.930,60.547
1711168395.844,-499.512,15.625,0.000,14.648,62.012
1711168395.848,-548.828,12.695,0.000,20.996,0.488
1711168395.852,-600.098,8.789,0.000,-11.230,-4.395
1711168395.856,-823.730,-5.371,0.000,-33.203,30.273
1711168395.860,-976.562,-20.508,0.000,-38.086,-37.109
1711168395.864,-964.355,-29.785,0.000,-49.805,-5.859
1711168395.868,-966.309,-57.617,0.000,-70.312,42.969
1711168395.872,-969.727,-87.402,0.000,-88.867,12.207
1711168395.875,-968.750,-108.398,-116.211,0.000,0.000
1711168395.879,-968.750,-120.117,-119.629,0.000,-14.160
1711168395.883,-968.750,-109.863,-134.766,0.000,-43.457
1711168395.887,-968.750,-101.562,-129.395,0.000,-19.531
1711168395.891,-968.750,-96.680,-117.676,0.000,18.555
1711168395.895,-968.750,-151.855,-127.441,0.000,9.277
1711168395.899,-968.750,-232.910,-138.184,0.000,-4.395
1711168395.903,-968.750,-253.418,-131.348,0.000,-21.484
1711168395.907,-968.750,-258.301,-122.559,0.000,21.973
1711168395.911,-968.750,-261.230,-116.211,0.000,12.207
1711168395.915,-968.750,-251.953,-111.816,0.000,-35.645
1711168395.918,-968.750,-233.887,-102.539,0.000,-34.668
1711168395.922,0.000,-229.980,0.000,-153.320,13.672
1711168395.926,0.000,-234.863,0.000,-135.254,-20.020
1711168395.930,0.000,-226.562,0.000,-131.348,-8.789
1711168395.934,0.000,-217.285,0.000,-162.598,38.574
1711168395.938,0.000,-219.727,0.000,-197.266,15.137
1711168395.942,0.000,-241.699,0.000,-198.242,24.902
1711168395.946,0.000,-255.859,0.000,-174.805,19.531
1711168395.950,0.000,-261.230,0.000,-152.832,-54.199
1711168395.954,0.000,-260.254,0.000,-143.555,5.371
1711168395.957,0.000,-250.977,0.000,-151.855,103.027
1711168395.961,0.000,-245.117,0.000,-163.086,75.195
1711168395.965,0.000,-242.676,0.000,-144.043,39.062
1711168395.969,-961.426,-232.910,-135.742,-104.492,-3.906
1711168395.973,-966.797,-212.402,-127.930,-82.520,8.301
1711168395.977,-936.035,-195.312,-120.117,-64.941,-31.738
1711168395.981,-595.703,-187.012,-109.863,-46.875,-25.391
1711168395.985,-100.586,-187.500,-104.492,-56.152,77.148
1711168395.989,214.355,-175.293,-108.398,-64.941,69.824
1711168395.993,448.242,-146.973,-101.562,-50.293,27.832
1711168395.997,796.387,-118.164,-83.496,-37.109,42.480
1711168396.000,-993.164,-95.215,-65.918,-26.367,20.996
1711168396.004,992.676,-69.824,-42.969,-11.230,15.625
1711168396.008,996.094,-56.641,-35.156,-20.508,22.949
1711168396.012,-999.512,-49.805,-37.109,-19.043,42.969
1711168396.016,999.512,-37.598,-27.344,1.953,82.031
1711168396.020,999.512,-29.785,-14.648,7.324,28.320
1711168396.024,999.512,-23.926,-7.324,18.066,17.090
1711168396.028,999.512,-15.137,-9.277,17.090,0.488
1711168396.032,999.512,-4.395,-4.395,10.254,-31.738
1711168396.036,999.512,10.742,1.465,14.160,29.785
1711168396.040,999.512,28.320,15.625,18.555,27.832
1711168396.043,999.512,45.898,28.809,36.621,-3.418
1711168396.047,999.512,48.340,23.438,50.781,22.461
1711168396.051,999.512,55.664,24.902,50.781,25.391
1711168396.055,999.512,73.242,39.062,57.129,-6.836
1711168396.059,999.512,78.613,42.480,65.918,4.883
1711168396.063,0.000,76.660,0.000,67.383,62.988
1711168396.067,0.000,86.426,0.000,68.359,49.805
1711168396.071,0.000,94.238,0.000,63.477,69.336
1711168396.075,0.000,100.586,0.000,69.824,62.988
1711168396.079,0.000,118.652,0.000,92.285,12.207
1711168396.083,0.000,128.906,0.000,92.773,17.578
1711168396.086,0.000,130.371,0.000,91.309,41.504
1711168396.090,0.000,128.906,0.000,103.027,26.367
1711168396.094,0.000,123.535,0.000,109.863,34.668
1711168396.098,0.000,112.305,0.000,82.520,69.336
1711168396.102,0.000,99.121,0.000,57.129,69.824
1711168396.106,0.000,84.473,0.000,58.594,8.789
1711168396.110,999.512,69.824,37.109,57.617,-21.484
1711168396.114,999.512,61.523,35.645,58.105,-12.695
1711168396.118,999.512,56.152,35.645,66.895,-23.926
1711168396.122,999.512,45.410,21.973,53.711,0.000
1711168396.125,999.512,27.832,8.301,29.785,27.344
1711168396.129,999.512,3.906,-8.301,11.719,59.570
1711168396.133,999.512,-10.254,-27.832,-2.441,55.176
1711168396.137,999.512,-20.020,-35.645,-11.719,13.672
1711168396.141,999.512,-36.133,-49.316,-29.297,16.602
1711168396.145,999.512,-41.504,-64.941,-49.316,16.602
1711168396.149,999.512,-43.945,-67.383,-72.266,25.391
1711168396.153,999.512,-46.387,-59.082,-67.871,79.590
1711168396.157,999.512,-45.898,-52.734,-44.922,129.395
1711168396.161,999.512,-57.129,-67.383,-68.359,38.574
1711168396.164,999.512,-62.988,-82.520,-110.352,-3.906
1711168396.168,999.512,-65.918,-90.332,-135.254,40.039
1711168396.172,999.512,-80.566,-98.633,-155.273,24.902
1711168396.176,999.512,-74.219,-94.238,-175.781,39.551
1711168396.180,999.512,-59.570,-82.031,-178.223,32.715
1711168396.184,999.512,-64.453,-90.332,-185.059,20.020
1711168396.188,999.512,-64.453,-106.934,-233.398,15.137
1711168396.192,999.512,-55.176,-115.723,-268.066,39.551
1711168396.196,999.512,-56.641,-123.535,-278.809,39.062
1711168396.200,999.512,-85.449,-142.578,-308.105,31.738
1711168396.204,191.406,-89.355,-162.109,-354.004,60.547
1711168396.207,28.320,-79.102,-178.223,-390.625,33.691
1711168396.211,-100.098,-86.426,-186.035,-400.879,55.664
1711168396.215,-103.516,-87.891,-187.012,-385.742,39.062
1711168396.219,-100.098,-76.660,-186.523,-362.793,-6.348
1711168396.223,-215.332,-65.918,-180.176,-352.539,35.156
1711168396.227,-359.375,-49.805,-178.711,-338.867,22.949
1711168396.231,-391.602,-21.973,-180.176,-313.965,-51.758
1711168396.235,-349.609,-15.137,-173.828,-286.133,-11.719
1711168396.239,-399.414,-19.043,-166.504,-274.414,39.551
1711168396.243,-500.977,-20.996,-157.227,-243.652,31.250
1711168396.246,-500.977,-4.883,-155.762,-199.707,41.504
1711168396.250,-442.871,14.160,-162.598,-187.500,30.762
1711168396.254,-423.828,16.602,-144.531,-156.250,-10.742
1711168396.258,-503.418,17.090,-126.465,-129.395,22.949
1711168396.262,-559.570,10.254,-128.418,-128.906,40.039
1711168396.266,-501.953,-5.371,-134.277,-115.723,24.902
1711168396.270,-463.867,-8.301,-130.371,-78.613,100.098
1711168396.274,-528.809,-4.883,-115.723,-49.805,92.773
1711168396.278,-546.875,-9.766,-119.141,-45.410,41.504
1711168396.282,-456.055,-11.230,-125.977,-53.223,81.543
1711168396.286,-366.699,-7.324,-119.629,-41.016,60.059
1711168396.289,-375.000,-12.207,-109.863,-19.531,30.762
1711168396.293,-453.613,-14.160,-100.098,-9.277,-4.883
1711168396.297,-416.992,-10.254,-95.215,1.953,29.785
1711168396.301,-274.414,-11.719,-90.332,14.648,10.254
1711168396.305,-240.234,-13.672,-86.426,24.414,-22.949
1711168396.309,-277.832,-11.719,-75.195,34.668,33.691
1711168396.313,-205.566,0.000,-61.035,45.898,28.320
1711168396.317,-58.105,2.441,-50.781,44.434,55.664
1711168396.321,-5.371,-14.160,-38.574,51.270,27.344
1711168396.325,-44.922,-14.648,-24.902,61.035,32.227
1711168396.329,-43.457,-1.953,-15.625,67.871,27.832
1711168396.332,57.129,8.789,-6.348,85.938,-4.883
1711168396.336,135.742,14.160,5.859,86.426,34.668
1711168396.340,84.473,17.578,10.254,87.402,24.414
1711168396.344,12.695,22.461,11.719,95.215,-4.395
1711168396.348,64.453,27.344,16.602,94.727,28.320
1711168396.352,167.969,47.363,24.414,90.332,52.246
1711168396.356,171.387,62.012,30.273,97.656,32.715
1711168396.360,135.742,53.711,31.250,104.980,-4.883
1711168396.364,204.102,57.129,39.062,111.328,-16.113
1711168396.368,314.453,65.918,50.293,117.188,3.906
1711168396.371,314.453,75.195,41.992,109.375,19.043
1711168396.375,235.352,79.590,37.598,111.816,59.082
1711168396.379,234.375,74.219,47.363,124.512,55.176
1711168396.383,332.031,77.637,55.176,131.348,60.059
1711168396.387,379.883,75.195,50.781,114.746,59.570
1711168396.391,0.000,66.895,0.000,105.469,36.133
1711168396.395,0.000,70.312,0.000,104.980,23.438
1711168396.399,0.000,66.895,0.000,80.566,5.859
1711168396.403,0.000,64.941,0.000,68.359,41.016
1711168396.407,0.000,69.824,0.000,69.824,51.758
1711168396.411,0.000,66.895,0.000,66.406,49.805
1711168396.414,0.000,60.059,0.000,64.453,40.527
1711168396.418,0.000,63.477,0.000,64.453,0.488
1711168396.422,0.000,66.895,0.000,67.871,-0.977
1711168396.426,0.000,60.059,0.000,71.289,-8.789
1711168396.430,0.000,55.176,0.000,76.660,39.551
1711168396.434,0.000,73.242,0.000,88.867,85.938
1711168396.438,335.449,82.031,50.293,80.566,12.695
1711168396.442,333.496,81.543,53.711,75.684,17.578
1711168396.446,430.664,97.656,49.805,83.496,45.410
1711168396.450,530.762,92.773,43.457,93.750,3.418
1711168396.453,503.906,84.473,31.738,106.934,19.043
1711168396.457,442.871,94.238,33.203,102.051,23.438
1711168396.461,512.695,90.332,40.527,80.078,-3.418
1711168396.465,608.887,77.148,35.645,69.824,38.574
1711168396.469,582.031,82.520,37.598,82.520,67.871
1711168396.473,509.277,87.891,49.316,76.660,54.199
1711168396.477,544.922,77.637,56.152,62.012,65.430
1711168396.481,641.113,71.777,60.547,66.406,66.406
1711168396.485,657.227,75.195,50.293,69.336,81.543
1711168396.489,658.203,73.730,55.664,75.195,67.871
1711168396.493,587.891,61.035,60.059,86.914,-23.438
1711168396.496,570.801,62.012,47.852,83.496,-50.293
1711168396.500,633.789,79.102,43.457,76.172,17.578
1711168396.504,631.348,70.801,41.992,75.195,46.875
1711168396.508,545.898,61.523,39.062,76.172,60.059
1711168396.512,502.930,59.570,35.645,72.266,80.078
1711168396.516,556.152,49.805,20.996,53.223,84.473
1711168396.520,605.957,41.016,10.742,39.062,50.781
1711168396.524,530.273,30.762,8.301,37.109,32.227
1711168396.528,465.332,26.367,4.883,24.902,13.672
1711168396.532,526.367,28.809,0.000,17.578,-24.414
1711168396.536,582.520,25.391,0.000,17.578,-31.250
1711168396.539,543.457,24.414,0.000,20.020,-19.043
1711168396.543,476.562,25.391,0.000,25.879,2.441
1711168396.547,479.004,20.020,0.000,24.414,62.500
1711168396.551,540.039,23.926,0.000,17.578,20.508
1711168396.555,509.277,35.645,0.000,18.066,-0.977
1711168396.559,372.070,38.086,0.000,27.344,27.832
1711168396.563,329.102,28.320,0.000,15.625,7.324
1711168396.567,389.160,19.043,0.000,-8.301,0.488
1711168396.571,375.977,6.836,0.000,-27.832,82.520
1711168396.575,268.555,-21.484,0.000,-39.062,66.406
1711168396.578,178.223,-34.180,-0.488,0.000,35.645
1711168396.582,183.594,-39.062,-11.719,0.000,31.738
1711168396.586,181.641,-62.500,-5.859,0.000,-15.625
1711168396.590,52.246,-74.219,7.812,0.000,0.000
1711168396.594,-73.730,-79.590,3.418,0.000,20.508
1711168396.598,-77.637,-94.727,1.465,0.000,35.156
1711168396.602,-63.477,-100.098,-1.465,0.000,78.613
1711168396.606,-141.602,-87.891,-21.484,0.000,99.609
1711168396.610,-264.160,-75.195,-39.551,0.000,59.082
1711168396.614,-304.199,-79.102,-41.016,0.000,19.531
1711168396.617,-296.875,-92.285,-52.734,0.000,14.648
1711168396.621,-374.512,-89.355,-80.078,0.000,13.184
1711168396.625,0.000,-82.031,-155.273,-108.887,5.859
1711168396.629,0.000,-83.008,-158.203,-97.168,56.152
1711168396.633,0.000,-80.078,-157.227,-91.797,44.922
1711168396.637,0.000,-76.172,-141.602,-91.797,16.113
1711168396.641,0.000,-80.078,-131.836,-80.566,20.508
1711168396.645,0.000,-78.125,-127.441,-65.918,-2.441
1711168396.649,0.000,-67.871,-119.629,-56.152,48.828
1711168396.653,0.000,-50.781,-100.586,-39.062,89.355
1711168396.657,0.000,-20.508,-73.730,-27.832,64.941
1711168396.660,0.000,-10.254,-56.641,-16.602,20.996
1711168396.664,0.000,-16.602,-49.316,-0.977,-5.371
1711168396.668,0.000,7.812,-34.668,8.301,31.738
1711168396.672,-507.324,37.109,0.000,5.371,1.465
1711168396.676,-571.777,34.668,0.000,0.000,-41.504
1711168396.680,-544.434,28.320,0.000,2.930,57.129
1711168396.684,-551.758,32.227,0.000,11.230,74.219
1711168396.688,-649.902,35.645,0.000,17.090,-17.578
1711168396.692,-723.633,39.062,0.000,18.066,22.949
1711168396.696,-671.387,46.387,0.000,24.414,87.891
1711168396.699,-585.449,51.758,0.000,27.344,18.066
1711168396.703,-568.359,62.988,0.000,33.691,35.645
1711168396.707,-533.691,65.430,0.000,44.922,82.520
1711168396.711,-427.734,59.570,0.000,42.480,89.844
1711168396.715,-312.988,70.312,0.000,45.898,79.590
1711168396.719,496.094,76.172,32.715,52.246,62.988
1711168396.723,471.680,64.453,30.762,50.293,38.574
1711168396.727,423.340,66.406,38.574,49.805,46.875
1711168396.731,458.984,78.613,37.109,43.457,34.668
1711168396.735,527.344,83.984,31.250,42.969,23.438
1711168396.739,503.418,82.031,35.645,47.852,30.762
1711168396.742,437.500,71.289,35.645,51.270,-20.996
1711168396.746,437.988,62.500,29.785,50.781,18.066
1711168396.750,513.672,64.453,41.016,63.477,34.668
1711168396.754,518.555,69.336,57.617,78.125,-10.742
1711168396.758,438.477,79.102,59.082,79.590,41.504
1711168396.762,419.922,74.707,56.641,76.660,79.102
1711168396.766,0.000,61.523,0.000,77.637,44.434
1711168396.770,0.000,59.570,0.000,72.754,41.016
1711168396.774,0.000,65.430,0.000,63.477,29.297
1711168396.778,0.000,64.941,0.000,63.965,55.176
1711168396.782,0.000,58.105,0.000,59.082,64.453
1711168396.785,0.000,55.664,0.000,53.223,44.922
1711168396.789,0.000,63.477,0.000,56.641,87.891
1711168396.793,0.000,65.430,0.000,66.406,71.289
1711168396.797,0.000,55.664,0.000,66.895,46.387
1711168396.801,0.000,52.246,0.000,60.059,16.113
1711168396.805,0.000,59.082,0.000,62.988,-11.230
1711168396.809,0.000,56.152,0.000,68.359,9.766
1711168396.813,487.793,53.711,57.617,81.055,39.062
1711168396.817,562.988,56.641,47.363,73.730,-0.977
1711168396.821,579.102,55.176,40.039,54.688,12.695
1711168396.824,513.184,53.223,41.992,56.152,43.457
1711168396.828,458.008,52.246,47.363,53.711,34.668
1711168396.832,506.348,59.082,46.875,66.406,52.734
1711168396.836,531.738,61.523,44.434,72.266,1.953
1711168396.840,453.613,60.059,45.410,43.457,-41.992
1711168396.844,370.605,49.805,42.969,26.367,-6.836
1711168396.848,400.391,38.086,44.922,28.320,29.297
1711168396.852,466.309,38.086,45.410,40.527,60.059
1711168396.856,422.852,40.039,46.875,46.387,66.406
1711168396.860,346.680,38.574,26.855,48.340,-7.324
1711168396.864,368.652,34.180,31.250,48.340,43.457
1711168396.867,432.129,30.762,27.832,36.621,47.363
1711168396.871,411.133,28.809,11.230,29.297,4.883
1711168396.875,338.379,31.250,15.625,33.691,64.941
1711168396.879,321.289,34.180,23.438,40.527,97.656
1711168396.883,381.836,33.203,18.066,41.504,71.777
1711168396.887,409.668,37.109,20.020,45.898,18.066
1711168396.891,341.309,37.109,16.602,48.828,4.883
1711168396.895,293.945,39.551,18.066,56.641,41.992
1711168396.899,355.957,46.387,27.832,72.754,2.930
1711168396.903,404.785,38.086,34.180,69.336,-15.625
1711168396.906,339.844,32.715,35.645,49.805,69.824
1711168396.910,266.113,38.574,35.156,56.641,44.922
1711168396.914,307.129,45.898,30.762,60.547,22.461
1711168396.918,392.090,48.828,26.855,49.316,49.316
1711168396.922,372.070,45.898,26.855,49.316,20.996
1711168396.926,268.555,45.410,22.949,40.039,-4.395
1711168396.930,260.254,49.316,23.438,41.016,22.461
1711168396.934,334.961,41.992,28.809,43.945,54.199
1711168396.938,333.008,39.062,26.855,41.016,59.082
1711168396.942,235.840,36.621,18.555,29.297,91.797
1711168396.946,206.055,35.645,17.578,22.461,70.312
1711168396.949,270.020,40.527,18.066,30.762,-3.418
1711168396.953,277.344,21.973,12.695,31.250,9.277
1711168396.957,201.172,17.578,16.113,28.809,-1.465
1711168396.961,162.598,36.621,20.996,39.551,-9.766
1711168396.965,223.633,47.852,23.926,46.387,18.066
1711168396.969,277.344,47.363,21.973,38.086,52.734
1711168396.973,235.352,37.598,15.625,33.203,9.766
1711168396.977,158.691,24.414,8.789,36.133,-54.688
1711168396.981,175.781,13.672,6.836,30.762,21.484
1711168396.985,256.836,20.020,7.812,26.367,49.316
1711168396.988,249.512,34.668,10.254,31.738,31.738
1711168396.992,160.156,35.645,12.207,34.180,62.500
1711168396.996,166.504,26.855,18.555,37.598,34.668
1711168397.000,254.395,31.250,24.902,53.223,31.738
1711168397.004,251.953,34.180,20.996,63.965,62.500
1711168397.008,161.621,24.414,12.207,50.293,43.945
1711168397.012,134.766,14.160,8.301,37.598,72.754
1711168397.016,202.148,4.395,10.254,30.762,83.984
1711168397.020,246.582,19.531,15.137,35.645,72.754
1711168397.024,197.754,44.922,20.996,42.969,52.734
1711168397.028,140.625,42.480,16.113,30.762,70.312
1711168397.031,180.176,39.551,6.836,19.531,114.746
1711168397.035,247.559,37.598,10.254,18.555,34.668
1711168397.039,219.727,34.180,20.020,21.973,-20.508
1711168397.043,139.160,31.738,21.484,27.832,24.902
1711168397.047,148.438,24.902,0.000,33.691,0.000
1711168397.051,230.469,28.320,0.000,39.062,0.000
1711168397.055,224.609,35.645,0.000,39.062,0.000
1711168397.059,145.996,28.320,0.000,41.504,0.000
1711168397.063,146.973,33.203,0.000,48.340,0.000
1711168397.067,217.773,48.828,0.000,40.039,0.000
1711168397.071,243.652,48.828,0.000,43.945,0.000
1711168397.074,185.059,42.480,0.000,56.641,0.000
1711168397.078,146.973,40.039,0.000,58.594,0.000
1711168397.082,198.242,34.668,0.000,57.617,0.000
1711168397.086,250.977,30.762,0.000,54.199,0.000
1711168397.090,212.402,35.156,0.000,50.781,0.000
1711168397.094,157.227,38.574,40.039,53.223,-28.320
1711168397.098,191.406,38.086,33.203,51.270,-3.418
1711168397.102,256.348,41.504,21.973,34.180,8.789
1711168397.106,232.910,43.457,28.809,28.809,-43.457
1711168397.110,161.133,35.645,34.180,41.504,-32.227
1711168397.114,174.316,23.438,30.762,44.922,35.156
1711168397.117,241.211,20.020,28.809,39.062,24.414
1711168397.121,228.516,33.691,27.832,38.574,25.391
1711168397.125,142.578,45.410,30.273,48.340,51.270
1711168397.129,130.371,40.039,35.645,53.223,-7.324
1711168397.133,212.402,40.039,36.133,50.293,-2.930
1711168397.137,229.980,44.434,28.320,43.457,62.012
1711168397.141,159.668,39.062,30.273,41.992,31.250
1711168397.145,122.559,31.250,34.180,41.504,3.906
1711168397.149,183.105,27.832,29.297,37.109,43.457
1711168397.153,239.746,32.715,28.320,40.039,7.812
1711168397.156,196.777,39.551,31.738,47.363,24.414
1711168397.160,137.207,41.504,32.715,43.457,2.930
1711168397.164,178.711,41.016,27.344,36.133,-44.922
1711168397.168,249.023,34.180,26.367,40.527,7.324
1711168397.172,227.051,31.250,33.691,52.734,33.203
1711168397.176,158.691,28.809,33.203,57.617,0.488
1711168397.180,147.949,25.879,23.926,49.805,54.688
1711168397.184,214.844,28.320,21.973,43.457,83.984
1711168397.188,228.027,21.484,0.000,45.898,10.254
1711168397.192,141.113,21.973,0.000,40.039,2.441
1711168397.196,103.516,37.109,0.000,16.113,18.555
1711168397.199,176.758,45.410,0.000,4.395,27.832
1711168397.203,221.680,41.992,0.000,13.672,47.852
1711168397.207,141.113,36.621,0.000,15.625,36.621
1711168397.211,77.148,32.227,0.000,14.160,2.930
1711168397.215,138.184,32.715,0.000,8.301,25.391
1711168397.219,203.613,30.273,0.000,6.836,28.809
1711168397.223,163.086,21.973,0.000,16.602,-9.277
1711168397.227,94.238,21.484,0.000,18.066,16.602
1711168397.231,119.141,28.809,0.000,12.695,63.965
1711168397.235,0.000,25.391,21.973,6.348,85.938
1711168397.238,0.000,18.555,13.672,9.766,36.621
1711168397.242,0.000,21.973,11.719,13.672,-1.953
1711168397.246,0.000,22.461,8.301,4.883,56.641
1711168397.250,0.000,22.461,3.906,4.395,76.660
1711168397.254,0.000,24.414,7.324,12.207,68.359
1711168397.258,0.000,25.391,4.883,21.484,46.875
1711168397.262,0.000,25.879,1.953,26.367,29.785
1711168397.266,0.000,13.184,0.977,20.996,33.203
1711168397.270,0.000,-2.930,-0.488,17.090,19.531
1711168397.274,0.000,-2.930,-5.371,14.648,44.434
1711168397.278,0.000,4.883,-0.977,18.066,49.316
1711168397.281,53.223,15.137,-2.441,20.020,44.434
1711168397.285,117.676,18.066,2.441,14.648,46.387
1711168397.289,64.941,10.254,-1.953,21.484,53.711
1711168397.293,-17.578,3.418,-4.883,24.902,56.641
1711168397.297,7.812,1.465,-8.301,17.090,6.836
1711168397.301,87.402,6.348,-8.301,17.090,-6.348
1711168397.305,68.848,13.184,-4.883,11.719,2.441
1711168397.309,-15.137,14.160,-8.301,0.000,-0.977
1711168397.313,-8.301,20.020,-6.836,10.742,20.996
1711168397.317,88.867,24.414,1.953,16.602,25.879
1711168397.320,111.328,14.160,2.441,7.812,54.688
1711168397.324,36.133,6.348,2.441,6.836,80.566
1711168397.328,5.859,2.441,0.000,1.953,57.617
1711168397.332,74.219,-2.441,0.000,2.930,46.387
1711168397.336,123.047,0.488,0.000,0.000,73.242
1711168397.340,75.684,20.996,0.000,0.000,44.922
1711168397.344,16.602,28.809,0.000,10.254,28.320
1711168397.348,59.570,22.949,0.000,6.348,60.059
1711168397.352,135.742,21.484,0.000,0.977,17.090
1711168397.356,101.074,23.926,0.000,1.465,-21.973
1711168397.360,27.344,24.414,0.000,5.371,93.262
1711168397.363,41.504,21.973,0.000,18.555,138.184
1711168397.367,123.535,24.414,0.000,14.160,4.395
1711168397.371,145.020,31.738,0.000,5.859,-36.621
1711168397.375,62.988,38.086,20.508,9.766,-0.488
1711168397.379,34.668,32.715,16.602,12.207,27.344
1711168397.383,131.348,24.414,16.113,10.742,50.781
1711168397.387,181.641,25.879,19.531,22.461,69.336
1711168397.391,110.840,25.879,18.066,29.785,71.289
1711168397.395,58.105,26.367,19.043,27.832,74.219
1711168397.399,106.934,26.367,17.090,30.762,55.176
1711168397.403,172.363,25.879,20.996,29.297,42.480
1711168397.406,123.047,26.367,17.578,30.273,53.223
1711168397.410,44.434,28.320,5.859,25.391,29.297
1711168397.414,73.730,40.039,10.742,25.391,70.312
1711168397.418,146.973,41.504,17.090,23.926,0.488
1711168397.422,0.000,31.738,18.066,9.277,-48.340
